%OpenBCI Raw EXG Data
%Number of channels = 8
%Sample Rate = 250 Hz
%Board = OpenBCI_GUI$BoardCytonSerial
Sample Index, EXG Channel 0, EXG Channel 1, EXG Channel 2, EXG Channel 3, EXG Channel 4, EXG Channel 5, EXG Channel 6, EXG Channel 7, Accel Channel 0, Accel Channel 1, Accel Channel 2, Other, Other, Other, Other, Other, Other, Other, Analog Channel 0, Analog Channel 1, Analog Channel 2, Timestamp, Other, Timestamp (Formatted)
29.0, 26694.554292506495, 17048.413103629722, -187500.02235174447, -182165.4432613186, 31323.62292094504, -187500.02235174447, 2876.691863142474, -270.9478462872322, 0.0, 0.0, 0.0, 192.0, 0.0, 0.0, 0.0, 0.0, 0.0, 0.0, 0.0, 0.0, 0.0, 1.696109058561402E9, 0.0, 2023-09-30 16:24:18.561
30.0, 26742.141156451842, 17016.13718463626, -187500.02235174447, -181679.47163337131, 31479.392228054076, -187500.02235174447, 3087.759386033939, 112.27281239900738, 0.0, 0.0, 0.0, 192.0, 0.0, 0.0, 0.0, 0.0, 0.0, 0.0, 0.0, 0.0, 0.0, 1.696109058561421E9, 0.0, 2023-09-30 16:24:18.561
31.0, 26702.779734466047, 16978.206274295604, -187500.02235174447, -180829.32303301373, 31719.069983848334, -187500.02235174447, 3456.4737625686844, 728.868034943108, 0.0, 0.0, 0.0, 192.0, 0.0, 0.0, 0.0, 0.0, 0.0, 0.0, 0.0, 0.0, 0.0, 1.6961090585614333E9, 0.0, 2023-09-30 16:24:18.561
32.0, 26616.74787005757, 16985.22472205457, -187500.02235174447, -181278.57074482093, 31568.66509540857, -187500.02235174447, 3269.9037516002363, 370.9048474913654, 0.0, 0.0, 0.0, 192.0, 0.0, 0.0, 0.0, 0.0, 0.0, 0.0, 0.0, 0.0, 0.0, 1.6961090585614448E9, 0.0, 2023-09-30 16:24:18.561
33.0, 26532.370034738786, 17043.00398147154, -187500.02235174447, -182147.2936448209, 31337.324540296144, -187500.02235174447, 2906.352628034667, -239.52129358307047, 0.0, 0.0, 0.0, 192.0, 0.0, 0.0, 0.0, 0.0, 0.0, 0.0, 0.0, 0.0, 0.0, 1.696109058561456E9, 0.0, 2023-09-30 16:24:18.561
34.0, 26601.995718717066, 17031.69399877715, -187500.02235174447, -181813.24682393632, 31463.298972046254, -187500.02235174447, 3064.4688683115087, 46.13400055575378, 0.0, 0.0, 0.0, 192.0, 0.0, 0.0, 0.0, 0.0, 0.0, 0.0, 0.0, 0.0, 0.0, 1.6961090585614672E9, 0.0, 2023-09-30 16:24:18.561
35.0, 26576.40297131574, 16983.950672620616, -187500.02235174447, -180925.43553417153, 31702.12736155121, -187500.02235174447, 3437.5865385039497, 695.5639357047005, 0.0, 0.0, 0.0, 192.0, 0.0, 0.0, 0.0, 0.0, 0.0, 0.0, 0.0, 0.0, 0.0, 1.6961090585614855E9, 0.0, 2023-09-30 16:24:18.561
36.0, 26492.29335693042, 16990.902065146216, -187500.02235174447, -181119.62748999926, 31622.443392568042, -187500.02235174447, 3349.3642031388526, 519.1416167189618, -0.106, 0.998, -0.07200000000000001, 192.0, 252.0, 176.0, 31.0, 48.0, 253.0, 192.0, 0.0, 0.0, 0.0, 1.6961090585614972E9, 0.0, 2023-09-30 16:24:18.561
37.0, 26422.690024696592, 17037.773673268995, -187500.02235174447, -182091.5260424049, 31353.037816648226, -187500.02235174447, 2942.204826140979, -173.31542650645096, -0.106, 0.998, -0.07200000000000001, 192.0, 0.0, 0.0, 0.0, 0.0, 0.0, 0.0, 0.0, 0.0, 0.0, 1.6961090585615084E9, 0.0, 2023-09-30 16:24:18.561
38.0, 26441.17491736113, 17051.02825773099, -187500.02235174447, -182003.2590035509, 31396.780180547263, -187500.02235174447, 2978.8393353032275, -69.08924211135412, -0.106, 0.998, -0.07200000000000001, 192.0, 0.0, 0.0, 0.0, 0.0, 0.0, 0.0, 0.0, 0.0, 0.0, 1.6961090585615194E9, 0.0, 2023-09-30 16:24:18.561
39.0, 26491.466342385575, 16973.646518426718, -187500.02235174447, -181099.01918161145, 31656.976837751492, -187500.02235174447, 3372.945293539202, 609.6214782740449, -0.106, 0.998, -0.07200000000000001, 192.0, 0.0, 0.0, 0.0, 0.0, 0.0, 0.0, 0.0, 0.0, 0.0, 1.69610905856153E9, 0.0, 2023-09-30 16:24:18.561
40.0, 26417.817344405335, 16975.948748105617, -187500.02235174447, -180958.42670898756, 31678.188643239577, -187500.02235174447, 3442.0121839061003, 687.2490867673263, -0.106, 0.998, -0.07200000000000001, 192.0, 0.0, 0.0, 0.0, 0.0, 0.0, 0.0, 0.0, 0.0, 0.0, 1.6961090585615413E9, 0.0, 2023-09-30 16:24:18.561
41.0, 26252.347380202697, 17058.069057234414, -187500.02235174447, -181967.92089556705, 31390.186415932945, -187500.02235174447, 3020.7488561569285, -50.44788723562804, -0.106, 0.998, -0.07200000000000001, 192.0, 0.0, 0.0, 0.0, 0.0, 0.0, 0.0, 0.0, 0.0, 0.0, 1.696109058561552E9, 0.0, 2023-09-30 16:24:18.561
42.0, 26299.934244148048, 17047.51903385151, -187500.02235174447, -182075.0751584858, 31376.73066577085, -187500.02235174447, 2978.079375991747, -88.2893905984629, -0.106, 0.998, -0.07200000000000001, 192.0, 0.0, 0.0, 0.0, 0.0, 0.0, 0.0, 0.0, 0.0, 0.0, 1.6961090585615628E9, 0.0, 2023-09-30 16:24:18.561
43.0, 26385.65318413415, 16971.813675381385, -187500.02235174447, -181238.96345364614, 31612.67568024107, -187500.02235174447, 3337.18250241071, 542.2980239746599, -0.106, 0.998, -0.07200000000000001, 192.0, 0.0, 0.0, 0.0, 0.0, 0.0, 0.0, 0.0, 0.0, 0.0, 1.696109058561574E9, 0.0, 2023-09-30 16:24:18.561
44.0, 26361.60270710024, 16983.88361738725, -187500.02235174447, -180844.5892744767, 31712.900902378668, -187500.02235174447, 3512.375475451407, 805.2662974913476, -0.106, 0.998, -0.07200000000000001, 192.0, 0.0, 0.0, 0.0, 0.0, 0.0, 0.0, 0.0, 0.0, 0.0, 1.6961090585615852E9, 0.0, 2023-09-30 16:24:18.561
45.0, 26270.564051933772, 17034.19739415615, -187500.02235174447, -181774.08656765064, 31457.71103593243, -187500.02235174447, 3136.8661686022483, 116.20671942314142, -0.106, 0.998, -0.07200000000000001, 192.0, 0.0, 0.0, 0.0, 0.0, 0.0, 0.0, 0.0, 0.0, 0.0, 1.696109058561596E9, 0.0, 2023-09-30 16:24:18.561
46.0, 26463.99604845, 17040.74645528155, -187500.02235174447, -182085.4687196575, 31395.103799713113, -187500.02235174447, 3011.5846409302526, -72.95609390212225, -0.11800000000000001, 1.002, -0.078, 192.0, 252.0, 80.0, 31.0, 80.0, 253.0, 144.0, 0.0, 0.0, 0.0, 1.6961090585616066E9, 0.0, 2023-09-30 16:24:18.561
47.0, 26473.540243332416, 17004.290760074946, -187500.02235174447, -181338.0040333276, 31621.616378023195, -187500.02235174447, 3339.3729733673304, 496.99103796375255, -0.11800000000000001, 1.002, -0.078, 192.0, 0.0, 0.0, 0.0, 0.0, 0.0, 0.0, 0.0, 0.0, 0.0, 1.6961090585616176E9, 0.0, 2023-09-30 16:24:18.561
48.0, 26439.073853382335, 16993.785440180953, -187500.02235174447, -180728.89664517602, 31782.593641590316, -187500.02235174447, 3600.28488639413, 922.5906041372543, -0.11800000000000001, 1.002, -0.078, 192.0, 0.0, 0.0, 0.0, 0.0, 0.0, 0.0, 0.0, 0.0, 0.0, 1.6961090585616293E9, 0.0, 2023-09-30 16:24:18.561
49.0, 26301.58827323774, 17018.37235908179, -187500.02235174447, -181572.07150126356, 31515.62440581613, -187500.02235174447, 3233.939794771647, 275.3287882004724, -0.11800000000000001, 1.002, -0.078, 192.0, 0.0, 0.0, 0.0, 0.0, 0.0, 0.0, 0.0, 0.0, 0.0, 1.69610905856164E9, 0.0, 2023-09-30 16:24:18.561
50.0, 26375.952527040547, 17047.071998962405, -187500.02235174447, -182130.70865043506, 31375.21074714789, -187500.02235174447, 2996.0948820227245, -103.4885768280717, -0.11800000000000001, 1.002, -0.078, 192.0, 0.0, 0.0, 0.0, 0.0, 0.0, 0.0, 0.0, 0.0, 0.0, 1.696109058561652E9, 0.0, 2023-09-30 16:24:18.561
51.0, 26468.04171419641, 17017.99237942605, -187500.02235174447, -181522.11535240596, 31569.11213029768, -187500.02235174447, 3266.7298038875824, 374.57053358203575, -0.11800000000000001, 1.002, -0.078, 192.0, 0.0, 0.0, 0.0, 0.0, 0.0, 0.0, 0.0, 0.0, 0.0, 1.69610905856167E9, 0.0, 2023-09-30 16:24:18.561
52.0, 26499.468266900574, 16983.83891389834, -187500.02235174447, -180745.23577037285, 31789.410923649186, -187500.02235174447, 3605.6716568078587, 940.5167031904106, -0.11800000000000001, 1.002, -0.078, 192.0, 0.0, 0.0, 0.0, 0.0, 0.0, 0.0, 0.0, 0.0, 0.0, 1.696109058561681E9, 0.0, 2023-09-30 16:24:18.561
53.0, 26396.94081508408, 17014.572562524387, -187500.02235174447, -181368.24594357563, 31584.266613038377, -187500.02235174447, 3335.7296390211154, 451.23701706373896, -0.11800000000000001, 1.002, -0.078, 192.0, 0.0, 0.0, 0.0, 0.0, 0.0, 0.0, 0.0, 0.0, 0.0, 1.696109058561692E9, 0.0, 2023-09-30 16:24:18.561
54.0, 26467.95230721859, 17060.3265834244, -187500.02235174447, -182111.77672288142, 31395.617889835587, -187500.02235174447, 3025.442722492543, -66.7646606880022, -0.11800000000000001, 1.002, -0.078, 192.0, 0.0, 0.0, 0.0, 0.0, 0.0, 0.0, 0.0, 0.0, 0.0, 1.696109058561703E9, 0.0, 2023-09-30 16:24:18.561
55.0, 26619.877114281313, 17016.427757314177, -187500.02235174447, -181656.18111564888, 31553.823537090248, -187500.02235174447, 3233.135131971256, 298.7981198785448, -0.11800000000000001, 1.002, -0.078, 192.0, 0.0, 0.0, 0.0, 0.0, 0.0, 0.0, 0.0, 0.0, 0.0, 1.6961090585617146E9, 0.0, 2023-09-30 16:24:18.561
56.0, 26543.434148244163, 16977.580425450855, -187500.02235174447, -180811.48634093837, 31777.542147343418, -187500.02235174447, 3588.0137786881664, 907.4584731410114, -0.122, 1.006, -0.062, 192.0, 252.0, 48.0, 31.0, 112.0, 254.0, 16.0, 0.0, 0.0, 0.0, 1.6961090585617256E9, 0.0, 2023-09-30 16:24:18.561
57.0, 26380.847559076257, 17009.69988223313, -187500.02235174447, -181192.82945309038, 31641.59883756624, -187500.02235174447, 3417.5370237275392, 585.0122076287518, -0.122, 1.006, -0.062, 192.0, 0.0, 0.0, 0.0, 0.0, 0.0, 0.0, 0.0, 0.0, 0.0, 1.6961090585617368E9, 0.0, 2023-09-30 16:24:18.561
58.0, 26388.201283002054, 17071.904787052248, -187500.02235174447, -182076.48331838648, 31411.21940746539, -187500.02235174447, 3050.856655938227, -48.86091337930124, -0.122, 1.006, -0.062, 192.0, 0.0, 0.0, 0.0, 0.0, 0.0, 0.0, 0.0, 0.0, 0.0, 1.6961090585617476E9, 0.0, 2023-09-30 16:24:18.561
59.0, 26480.089304457822, 17030.107024920824, -187500.02235174447, -181850.28366449877, 31486.053047901758, -187500.02235174447, 3140.531854692919, 139.5866441233926, -0.122, 1.006, -0.062, 192.0, 0.0, 0.0, 0.0, 0.0, 0.0, 0.0, 0.0, 0.0, 0.0, 1.6961090585617585E9, 0.0, 2023-09-30 16:24:18.561
60.0, 26524.72573813507, 16972.618338181775, -187500.02235174447, -180983.5053662664, 31723.406222272664, -187500.02235174447, 3505.2005654812538, 775.6949395769763, -0.122, 1.006, -0.062, 192.0, 0.0, 0.0, 0.0, 0.0, 0.0, 0.0, 0.0, 0.0, 0.0, 1.6961090585617695E9, 0.0, 2023-09-30 16:24:18.561
61.0, 26401.50057095296, 17009.07403338838, -187500.02235174447, -181059.90362881467, 31683.50835841994, -187500.02235174447, 3473.863419754913, 683.4269384654688, -0.122, 1.006, -0.062, 192.0, 0.0, 0.0, 0.0, 0.0, 0.0, 0.0, 0.0, 0.0, 0.0, 1.696109058561781E9, 0.0, 2023-09-30 16:24:18.561
62.0, 26341.173212668087, 17066.965051527626, -187500.02235174447, -182011.68561121056, 31437.147431033547, -187500.02235174447, 3085.434804610587, -6.169081469664749, -0.122, 1.006, -0.062, 192.0, 0.0, 0.0, 0.0, 0.0, 0.0, 0.0, 0.0, 0.0, 0.0, 1.696109058561793E9, 0.0, 2023-09-30 16:24:18.561
63.0, 26436.257533580963, 17052.391714142766, -187500.02235174447, -181968.6137996452, 31476.46414953043, -187500.02235174447, 3108.658267099651, 63.121326341787146, -0.122, 1.006, -0.062, 192.0, 0.0, 0.0, 0.0, 0.0, 0.0, 0.0, 0.0, 0.0, 0.0, 1.696109058561804E9, 0.0, 2023-09-30 16:24:18.561
64.0, 26477.496502101007, 16998.859286172305, -187500.02235174447, -181127.96469068108, 31713.83967564579, -187500.02235174447, 3463.581617305472, 693.775796148276, -0.122, 1.006, -0.062, 192.0, 0.0, 0.0, 0.0, 0.0, 0.0, 0.0, 0.0, 0.0, 0.0, 1.6961090585618153E9, 0.0, 2023-09-30 16:24:18.561
65.0, 26407.110858811244, 16994.657158214708, -187500.02235174447, -180932.63279588614, 31743.254571348974, -187500.02235174447, 3540.046935087077, 807.4567684479676, -0.122, 1.006, -0.062, 192.0, 0.0, 0.0, 0.0, 0.0, 0.0, 0.0, 0.0, 0.0, 0.0, 1.6961090585618262E9, 0.0, 2023-09-30 16:24:18.561
66.0, 26322.285988603355, 17046.356743139833, -187500.02235174447, -181898.00463891085, 31470.406826783044, -187500.02235174447, 3138.0955145472903, 96.1795563911863, -0.122, 1.006, -0.062, 192.0, 0.0, 0.0, 0.0, 0.0, 0.0, 0.0, 0.0, 0.0, 0.0, 1.6961090585618372E9, 0.0, 2023-09-30 16:24:18.561
67.0, 26399.444210463073, 17049.66480131922, -187500.02235174447, -182098.29862097488, 31425.524523916785, -187500.02235174447, 3043.3911732901543, -17.680229864147886, -0.124, 0.968, -0.054, 192.0, 252.0, 32.0, 30.0, 64.0, 254.0, 80.0, 0.0, 0.0, 0.0, 1.6961090585618489E9, 0.0, 2023-09-30 16:24:18.561
68.0, 26500.29528144542, 17017.299475347936, -187500.02235174447, -181340.21685602868, 31643.588142822762, -187500.02235174447, 3360.897703277791, 559.2406462717827, -0.124, 0.968, -0.054, 192.0, 0.0, 0.0, 0.0, 0.0, 0.0, 0.0, 0.0, 0.0, 0.0, 1.6961090585618598E9, 0.0, 2023-09-30 16:24:18.561
69.0, 26537.622694685782, 17006.481231031565, -187500.02235174447, -180911.13041772015, 31740.102975380778, -187500.02235174447, 3533.0508390725663, 853.2331410924365, -0.124, 0.968, -0.054, 192.0, 0.0, 0.0, 0.0, 0.0, 0.0, 0.0, 0.0, 0.0, 0.0, 1.6961090585618706E9, 0.0, 2023-09-30 16:24:18.561
70.0, 26335.138241665154, 17007.688225232152, -187500.02235174447, -181801.02041971928, 31494.47965556141, -187500.02235174447, 3164.4258695156423, 189.14046158080836, -0.124, 0.968, -0.054, 192.0, 0.0, 0.0, 0.0, 0.0, 0.0, 0.0, 0.0, 0.0, 0.0, 1.696109058561882E9, 0.0, 2023-09-30 16:24:18.561
71.0, 26387.821303346314, 17025.79313824095, -187500.02235174447, -182194.96991574406, 31411.59938712113, -187500.02235174447, 3000.3193617247775, -63.858933908812276, -0.124, 0.968, -0.054, 192.0, 0.0, 0.0, 0.0, 0.0, 0.0, 0.0, 0.0, 0.0, 0.0, 1.696109058561895E9, 0.0, 2023-09-30 16:24:18.561
72.0, 26499.512970389485, 16992.623149469277, -187500.02235174447, -181520.9977651832, 31625.907912958613, -187500.02235174447, 3298.8939641587694, 460.51299101269143, -0.124, 0.968, -0.054, 192.0, 0.0, 0.0, 0.0, 0.0, 0.0, 0.0, 0.0, 0.0, 0.0, 1.6961090585619104E9, 0.0, 2023-09-30 16:24:18.561
73.0, 26527.184430025154, 16963.252957255, -187500.02235174447, -180869.2879520998, 31803.134894744744, -187500.02235174447, 3577.866086705457, 928.4020576956342, -0.124, 0.968, -0.054, 192.0, 0.0, 0.0, 0.0, 0.0, 0.0, 0.0, 0.0, 0.0, 0.0, 1.6961090585619223E9, 0.0, 2023-09-30 16:24:18.561
74.0, 26329.2150293845, 17006.481231031565, -187500.02235174447, -181618.13844658597, 31573.537775699828, -187500.02235174447, 3255.106896770823, 348.9554344362539, -0.124, 0.968, -0.054, 192.0, 0.0, 0.0, 0.0, 0.0, 0.0, 0.0, 0.0, 0.0, 0.0, 1.6961090585619357E9, 0.0, 2023-09-30 16:24:18.561
75.0, 26347.69992204904, 17036.946658724148, -187500.02235174447, -182243.40614597872, 31412.87343655508, -187500.02235174447, 2985.20958247299, -86.50125104203833, -0.124, 0.968, -0.054, 192.0, 0.0, 0.0, 0.0, 0.0, 0.0, 0.0, 0.0, 0.0, 0.0, 1.6961090585619507E9, 0.0, 2023-09-30 16:24:18.561
76.0, 26476.53537708943, 17029.503527820532, -187500.02235174447, -181700.3481626926, 31606.12661911567, -187500.02235174447, 3236.0632104949013, 347.72608849121195, -0.124, 0.968, -0.054, 192.0, 0.0, 0.0, 0.0, 0.0, 0.0, 0.0, 0.0, 0.0, 0.0, 1.696109058561962E9, 0.0, 2023-09-30 16:24:18.561
77.0, 26497.747182577514, 16974.518236460477, -187500.02235174447, -180937.4607726885, 31808.521665158474, -187500.02235174447, 3555.402583527873, 899.1883276925478, -0.11800000000000001, 0.9540000000000001, -0.05, 192.0, 252.0, 80.0, 29.0, 208.0, 254.0, 112.0, 0.0, 0.0, 0.0, 1.696109058561973E9, 0.0, 2023-09-30 16:24:18.561
78.0, 26392.89514933767, 16999.21691408359, -187500.02235174447, -181448.04167128107, 31643.588142822762, -187500.02235174447, 3341.0493542014783, 490.911363471909, -0.11800000000000001, 0.9540000000000001, -0.05, 192.0, 0.0, 0.0, 0.0, 0.0, 0.0, 0.0, 0.0, 0.0, 0.0, 1.696109058561984E9, 0.0, 2023-09-30 16:24:18.561
79.0, 26371.88450954968, 17031.425777843688, -187500.02235174447, -182227.87168358229, 31440.388433979566, -187500.02235174447, 3013.9315740980596, -63.188381575153066, -0.11800000000000001, 0.9540000000000001, -0.05, 192.0, 0.0, 0.0, 0.0, 0.0, 0.0, 0.0, 0.0, 0.0, 0.0, 1.6961090585619953E9, 0.0, 2023-09-30 16:24:18.561
80.0, 26457.33522860232, 16986.94580637763, -187500.02235174447, -181869.90849613055, 31564.77589187335, -187500.02235174447, 3172.003110885991, 231.09468592341972, -0.11800000000000001, 0.9540000000000001, -0.05, 192.0, 0.0, 0.0, 0.0, 0.0, 0.0, 0.0, 0.0, 0.0, 0.0, 1.6961090585620065E9, 0.0, 2023-09-30 16:24:18.562
81.0, 26530.648950415725, 16950.847739082306, -187500.02235174447, -181058.60722763627, 31781.878385767748, -187500.02235174447, 3511.2131847397313, 826.5004547238892, -0.11800000000000001, 0.9540000000000001, -0.05, 192.0, 0.0, 0.0, 0.0, 0.0, 0.0, 0.0, 0.0, 0.0, 0.0, 1.6961090585620172E9, 0.0, 2023-09-30 16:24:18.562
82.0, 26371.057495004832, 16968.192692779623, -187500.02235174447, -181298.10616947486, 31698.864006860735, -187500.02235174447, 3420.3533435289078, 621.4455510909023, -0.11800000000000001, 0.9540000000000001, -0.05, 192.0, 0.0, 0.0, 0.0, 0.0, 0.0, 0.0, 0.0, 0.0, 0.0, 1.696109058562028E9, 0.0, 2023-09-30 16:24:18.562
83.0, 26350.53859359486, 17010.772765966984, -187500.02235174447, -182165.57737178533, 31470.2280128274, -187500.02235174447, 3066.3240631012995, -0.13411046673184238, -0.11800000000000001, 0.9540000000000001, -0.05, 192.0, 0.0, 0.0, 0.0, 0.0, 0.0, 0.0, 0.0, 0.0, 0.0, 1.6961090585620391E9, 0.0, 2023-09-30 16:24:18.562
84.0, 26444.505327284973, 16992.623149469277, -187500.02235174447, -182009.33867804275, 31522.91107450856, -187500.02235174447, 3124.550357407374, 144.19110348118585, -0.11800000000000001, 0.9540000000000001, -0.05, 192.0, 0.0, 0.0, 0.0, 0.0, 0.0, 0.0, 0.0, 0.0, 0.0, 1.69610905856205E9, 0.0, 2023-09-30 16:24:18.562
85.0, 26498.90947328919, 16970.941957347626, -187500.02235174447, -181207.6710114087, 31739.633588747216, -187500.02235174447, 3453.031593922567, 739.9097967040296, -0.11800000000000001, 0.9540000000000001, -0.05, 192.0, 0.0, 0.0, 0.0, 0.0, 0.0, 0.0, 0.0, 0.0, 0.0, 1.6961090585620608E9, 0.0, 2023-09-30 16:24:18.562
86.0, 26429.529658499916, 16975.769934149976, -187500.02235174447, -181179.64192386175, 31738.71716722455, -187500.02235174447, 3475.249227911142, 739.2615961148258, -0.11800000000000001, 0.9540000000000001, -0.05, 192.0, 0.0, 0.0, 0.0, 0.0, 0.0, 0.0, 0.0, 0.0, 0.0, 1.6961090585620716E9, 0.0, 2023-09-30 16:24:18.562
87.0, 26333.484212575462, 17000.490963517543, -187500.02235174447, -182102.2772314879, 31487.640021758085, -187500.02235174447, 3099.5164036174306, 71.1679543456977, -0.10400000000000001, 0.9540000000000001, -0.048, 192.0, 252.0, 192.0, 29.0, 208.0, 254.0, 128.0, 0.0, 0.0, 0.0, 1.6961090585620828E9, 0.0, 2023-09-30 16:24:18.562
88.0, 26445.84643195229, 17021.814527727907, -187500.02235174447, -182163.9009909512, 31479.10165537616, -187500.02235174447, 3062.725432243995, 57.37692801677323, -0.10400000000000001, 0.9540000000000001, -0.048, 192.0, 0.0, 0.0, 0.0, 0.0, 0.0, 0.0, 0.0, 0.0, 0.0, 1.6961090585620935E9, 0.0, 2023-09-30 16:24:18.562
89.0, 26500.29528144542, 16976.574596950366, -187500.02235174447, -181352.3538532679, 31724.680271706617, -187500.02235174447, 3421.2027098182098, 680.096528541628, -0.10400000000000001, 0.9540000000000001, -0.048, 192.0, 0.0, 0.0, 0.0, 0.0, 0.0, 0.0, 0.0, 0.0, 0.0, 1.6961090585621045E9, 0.0, 2023-09-30 16:24:18.562
90.0, 26465.22539439504, 16952.032381538436, -187500.02235174447, -181070.05132079739, 31784.09120846882, -187500.02235174447, 3541.1868740542977, 866.3536150877018, -0.10400000000000001, 0.9540000000000001, -0.048, 192.0, 0.0, 0.0, 0.0, 0.0, 0.0, 0.0, 0.0, 0.0, 0.0, 1.6961090585621152E9, 0.0, 2023-09-30 16:24:18.562
91.0, 26387.486027179486, 16995.32771054837, -187500.02235174447, -181993.64775343513, 31518.261911661855, -187500.02235174447, 3157.429773501131, 182.74786266659055, -0.10400000000000001, 0.9540000000000001, -0.048, 192.0, 0.0, 0.0, 0.0, 0.0, 0.0, 0.0, 0.0, 0.0, 0.0, 1.6961090585621257E9, 0.0, 2023-09-30 16:24:18.562
92.0, 26510.62178738377, 16989.829181412362, -187500.02235174447, -182228.87751208278, 31472.306725061742, -187500.02235174447, 3062.568970032808, 52.07956458086546, -0.10400000000000001, 0.9540000000000001, -0.048, 192.0, 0.0, 0.0, 0.0, 0.0, 0.0, 0.0, 0.0, 0.0, 0.0, 1.6961090585621371E9, 0.0, 2023-09-30 16:24:18.562
93.0, 26546.362226767807, 16954.111093772783, -187500.02235174447, -181525.1998931408, 31670.477291402494, -187500.02235174447, 3357.768459054048, 594.6458094889891, -0.10400000000000001, 0.9540000000000001, -0.048, 192.0, 0.0, 0.0, 0.0, 0.0, 0.0, 0.0, 0.0, 0.0, 0.0, 1.69610905856215E9, 0.0, 2023-09-30 16:24:18.562
94.0, 26486.794827794412, 16956.88271008524, -187500.02235174447, -181062.3846724492, 31775.28462115343, -187500.02235174447, 3539.8904728758903, 916.3768191786789, -0.10400000000000001, 0.9540000000000001, -0.048, 192.0, 0.0, 0.0, 0.0, 0.0, 0.0, 0.0, 0.0, 0.0, 0.0, 1.6961090585621612E9, 0.0, 2023-09-30 16:24:18.562
95.0, 26350.40448312813, 16989.78447792345, -187500.02235174447, -181873.26125779885, 31550.493127166406, -187500.02235174447, 3211.6104020607954, 311.67272468480166, -0.10400000000000001, 0.9540000000000001, -0.048, 192.0, 0.0, 0.0, 0.0, 0.0, 0.0, 0.0, 0.0, 0.0, 0.0, 1.6961090585621724E9, 0.0, 2023-09-30 16:24:18.562
96.0, 26403.355765742752, 17016.94184743665, -187500.02235174447, -182289.33898083438, 31475.480672774396, -187500.02235174447, 3054.9023216846376, 50.55964595790458, -0.10400000000000001, 0.9540000000000001, -0.048, 192.0, 0.0, 0.0, 0.0, 0.0, 0.0, 0.0, 0.0, 0.0, 0.0, 1.6961090585621839E9, 0.0, 2023-09-30 16:24:18.562
97.0, 26497.568368621873, 16997.3617192938, -187500.02235174447, -181727.25966301677, 31636.34617761924, -187500.02235174447, 3281.9289901171915, 487.6256570369789, -0.09, 0.96, -0.056, 192.0, 253.0, 48.0, 30.0, 0.0, 254.0, 64.0, 0.0, 0.0, 0.0, 1.6961090585621943E9, 0.0, 2023-09-30 16:24:18.562
98.0, 26492.29335693042, 16955.340439717824, -187500.02235174447, -181062.96581780503, 31811.20387449311, -187500.02235174447, 3563.248045831686, 974.178430340103, -0.09, 0.96, -0.056, 192.0, 0.0, 0.0, 0.0, 0.0, 0.0, 0.0, 0.0, 0.0, 0.0, 1.6961090585622053E9, 0.0, 2023-09-30 16:24:18.562
99.0, 26386.88253007919, 16983.4589342426, -187500.02235174447, -181692.50270038875, 31621.817543723293, -187500.02235174447, 3308.236993341088, 489.3467413600375, -0.09, 0.96, -0.056, 192.0, 0.0, 0.0, 0.0, 0.0, 0.0, 0.0, 0.0, 0.0, 0.0, 1.6961090585622163E9, 0.0, 2023-09-30 16:24:18.562
100.0, 26430.021396877935, 17021.054568416424, -187500.02235174447, -182320.36320213834, 31463.52248949081, -187500.02235174447, 3049.917882671104, 55.409974504706206, -0.09, 0.96, -0.056, 192.0, 0.0, 0.0, 0.0, 0.0, 0.0, 0.0, 0.0, 0.0, 0.0, 1.6961090585622275E9, 0.0, 2023-09-30 16:24:18.562
101.0, 26465.314801372864, 17003.262579830003, -187500.02235174447, -181898.65283950005, 31583.3054880268, -187500.02235174447, 3216.103102696312, 389.9261820228317, -0.09, 0.96, -0.056, 192.0, 0.0, 0.0, 0.0, 0.0, 0.0, 0.0, 0.0, 0.0, 0.0, 1.696109058562238E9, 0.0, 2023-09-30 16:24:18.562
102.0, 26515.650929886215, 16956.659192640687, -187500.02235174447, -181120.81213245538, 31795.37883941875, -187500.02235174447, 3543.153827566365, 965.2377325579802, -0.09, 0.96, -0.056, 192.0, 0.0, 0.0, 0.0, 0.0, 0.0, 0.0, 0.0, 0.0, 0.0, 1.6961090585622487E9, 0.0, 2023-09-30 16:24:18.562
103.0, 26431.18368758961, 16981.916663875185, -187500.02235174447, -181528.93263446484, 31662.721236076504, -187500.02235174447, 3371.671244105249, 634.0295832192402, -0.09, 0.96, -0.056, 192.0, 0.0, 0.0, 0.0, 0.0, 0.0, 0.0, 0.0, 0.0, 0.0, 1.6961090585622597E9, 0.0, 2023-09-30 16:24:18.562
104.0, 26406.440306477583, 16990.812658168397, -187500.02235174447, -182313.50121659055, 31456.146413820556, -187500.02235174447, 3048.3532605592327, 75.9735794035887, -0.09, 0.96, -0.056, 192.0, 0.0, 0.0, 0.0, 0.0, 0.0, 0.0, 0.0, 0.0, 0.0, 1.6961090585622704E9, 0.0, 2023-09-30 16:24:18.562
105.0, 26504.765630336482, 17002.837896685352, -187500.02235174447, -182034.28322485488, 31546.872144564648, -187500.02235174447, 3162.682433448128, 309.8622333839218, -0.09, 0.96, -0.056, 192.0, 0.0, 0.0, 0.0, 0.0, 0.0, 0.0, 0.0, 0.0, 0.0, 1.6961090585622811E9, 0.0, 2023-09-30 16:24:18.562
106.0, 26521.507086933507, 16989.918588390185, -187500.02235174447, -181246.29482582747, 31760.800690746393, -187500.02235174447, 3484.8381262824687, 891.7451967889306, -0.09, 0.96, -0.056, 192.0, 0.0, 0.0, 0.0, 0.0, 0.0, 0.0, 0.0, 0.0, 0.0, 1.696109058562292E9, 0.0, 2023-09-30 16:24:18.562
107.0, 26482.123313203254, 16983.660099942696, -187500.02235174447, -181381.25465884863, 31708.385849998696, -187500.02235174447, 3434.524349513573, 766.9554074949513, -0.09, 0.96, -0.056, 192.0, 0.0, 0.0, 0.0, 0.0, 0.0, 0.0, 0.0, 0.0, 0.0, 1.6961090585623033E9, 0.0, 2023-09-30 16:24:18.562
108.0, 26450.89792619919, 17020.138146893758, -187500.02235174447, -182279.10188187385, 31460.952038878448, -187500.02235174447, 3061.65254851014, 117.14549269026432, -0.08600000000000001, 0.978, -0.07, 192.0, 253.0, 80.0, 30.0, 144.0, 253.0, 208.0, 0.0, 0.0, 0.0, 1.6961090585623147E9, 0.0, 2023-09-30 16:24:18.562
109.0, 26504.162133236186, 17024.809661484916, -187500.02235174447, -182172.21583988858, 31514.66328080455, -187500.02235174447, 3108.233583955, 232.2346248906404, -0.08600000000000001, 0.978, -0.07, 192.0, 0.0, 0.0, 0.0, 0.0, 0.0, 0.0, 0.0, 0.0, 0.0, 1.696109058562326E9, 0.0, 2023-09-30 16:24:18.562
110.0, 26547.345703523843, 16986.387012766245, -187500.02235174447, -181359.97579812715, 31748.976617929533, -187500.02235174447, 3452.5845590334607, 846.9746526449505, -0.08600000000000001, 0.978, -0.07, 192.0, 0.0, 0.0, 0.0, 0.0, 0.0, 0.0, 0.0, 0.0, 0.0, 1.6961090585623372E9, 0.0, 2023-09-30 16:24:18.562
111.0, 26473.897871243702, 16990.566788979388, -187500.02235174447, -181242.74089845907, 31754.788071487914, -187500.02235174447, 3494.516431631617, 905.4691678844891, -0.08600000000000001, 0.978, -0.07, 192.0, 0.0, 0.0, 0.0, 0.0, 0.0, 0.0, 0.0, 0.0, 0.0, 1.6961090585623496E9, 0.0, 2023-09-30 16:24:18.562
112.0, 26415.805687404358, 17036.41021685722, -187500.02235174447, -182157.6425025037, 31509.72354527993, -187500.02235174447, 3126.6514213861733, 237.28611913753977, -0.08600000000000001, 0.978, -0.07, 192.0, 0.0, 0.0, 0.0, 0.0, 0.0, 0.0, 0.0, 0.0, 0.0, 1.6961090585623605E9, 0.0, 2023-09-30 16:24:18.562
113.0, 26513.840438585336, 17052.369362398313, -187500.02235174447, -182247.0718320694, 31510.684670291506, -187500.02235174447, 3094.5096128594414, 213.74973222610143, -0.08600000000000001, 0.978, -0.07, 192.0, 0.0, 0.0, 0.0, 0.0, 0.0, 0.0, 0.0, 0.0, 0.0, 1.696109058562372E9, 0.0, 2023-09-30 16:24:18.562
114.0, 26600.520503583015, 16981.916663875185, -187500.02235174447, -181461.89975284337, 31739.07479513583, -187500.02235174447, 3429.338744799941, 816.7103906524648, -0.08600000000000001, 0.978, -0.07, 192.0, 0.0, 0.0, 0.0, 0.0, 0.0, 0.0, 0.0, 0.0, 0.0, 1.6961090585623827E9, 0.0, 2023-09-30 16:24:18.562
115.0, 26555.05705536092, 16968.41621022418, -187500.02235174447, -181089.36322800675, 31816.791810606937, -187500.02235174447, 3579.2518948616857, 1071.8332018653396, -0.08600000000000001, 0.978, -0.07, 192.0, 0.0, 0.0, 0.0, 0.0, 0.0, 0.0, 0.0, 0.0, 0.0, 1.6961090585623963E9, 0.0, 2023-09-30 16:24:18.562
116.0, 26458.05048442489, 17038.555984324932, -187500.02235174447, -181966.9597705555, 31562.473662194454, -187500.02235174447, 3216.1478061852226, 415.3177637240605, -0.08600000000000001, 0.978, -0.07, 192.0, 0.0, 0.0, 0.0, 0.0, 0.0, 0.0, 0.0, 0.0, 0.0, 1.6961090585624075E9, 0.0, 2023-09-30 16:24:18.562
117.0, 26551.59253497035, 17070.31781319592, -187500.02235174447, -182270.18353583617, 31498.90530096356, -187500.02235174447, 3091.8274035248046, 229.1724359002633, -0.08600000000000001, 0.978, -0.07, 192.0, 0.0, 0.0, 0.0, 0.0, 0.0, 0.0, 0.0, 0.0, 0.0, 1.6961090585624187E9, 0.0, 2023-09-30 16:24:18.562
118.0, 26622.671082338227, 17021.099271905336, -187500.02235174447, -181592.92567884037, 31704.295480763376, -187500.02235174447, 3381.774232599048, 757.2100469124374, -0.096, 0.984, -0.08, 192.0, 253.0, 0.0, 30.0, 192.0, 253.0, 128.0, 0.0, 0.0, 0.0, 1.6961090585624297E9, 0.0, 2023-09-30 16:24:18.562
119.0, 26594.59729130236, 16983.07895458686, -187500.02235174447, -181051.76759383292, 31826.62657816727, -187500.02235174447, 3591.545354312105, 1136.2285776410793, -0.096, 0.984, -0.08, 192.0, 0.0, 0.0, 0.0, 0.0, 0.0, 0.0, 0.0, 0.0, 0.0, 1.6961090585624416E9, 0.0, 2023-09-30 16:24:18.562
120.0, 26502.217531468577, 17007.04002464295, -187500.02235174447, -181774.3100850952, 31624.566808291296, -187500.02235174447, 3305.241859584077, 592.3882832990031, -0.096, 0.984, -0.08, 192.0, 0.0, 0.0, 0.0, 0.0, 0.0, 0.0, 0.0, 0.0, 0.0, 1.6961090585624535E9, 0.0, 2023-09-30 16:24:18.562
121.0, 26547.88214539077, 17033.839766244862, -187500.02235174447, -182248.27882627, 31523.71573730895, -187500.02235174447, 3119.1635869936454, 282.83897433745557, -0.096, 0.984, -0.08, 192.0, 0.0, 0.0, 0.0, 0.0, 0.0, 0.0, 0.0, 0.0, 0.0, 1.6961090585624647E9, 0.0, 2023-09-30 16:24:18.562
122.0, 26613.21629443363, 16996.914684404695, -187500.02235174447, -181715.63675590002, 31676.46755891652, -187500.02235174447, 3331.5722145524282, 696.547412460734, -0.096, 0.984, -0.08, 192.0, 0.0, 0.0, 0.0, 0.0, 0.0, 0.0, 0.0, 0.0, 0.0, 1.6961090585625024E9, 0.0, 2023-09-30 16:24:18.562
123.0, 26619.675948581214, 16958.223814752557, -187500.02235174447, -180979.3702935422, 31874.861642701824, -187500.02235174447, 3641.1215235139757, 1234.19627358869, -0.096, 0.984, -0.08, 192.0, 0.0, 0.0, 0.0, 0.0, 0.0, 0.0, 0.0, 0.0, 0.0, 1.6961090585625212E9, 0.0, 2023-09-30 16:24:18.562
124.0, 26512.588740895837, 16996.333539048857, -187500.02235174447, -181505.53035802013, 31707.715297665036, -187500.02235174447, 3423.7284569416593, 817.9620883419619, -0.096, 0.984, -0.08, 192.0, 0.0, 0.0, 0.0, 0.0, 0.0, 0.0, 0.0, 0.0, 0.0, 1.696109058562534E9, 0.0, 2023-09-30 16:24:18.562
125.0, 26538.315598763897, 17030.26348713201, -187500.02235174447, -182168.1031189088, 31545.262818963867, -187500.02235174447, 3157.8544566457817, 356.5773792955136, -0.096, 0.984, -0.08, 192.0, 0.0, 0.0, 0.0, 0.0, 0.0, 0.0, 0.0, 0.0, 0.0, 1.6961090585625463E9, 0.0, 2023-09-30 16:24:18.562
126.0, 26619.60889334785, 17002.994358896536, -187500.02235174447, -181751.17602958393, 31678.345105450764, -187500.02235174447, 3335.5061215765622, 693.5299269592675, -0.096, 0.984, -0.08, 192.0, 0.0, 0.0, 0.0, 0.0, 0.0, 0.0, 0.0, 0.0, 0.0, 1.696109058562559E9, 0.0, 2023-09-30 16:24:18.562
127.0, 26635.858611566855, 16971.411343981188, -187500.02235174447, -180939.42772620055, 31891.1784161542, -187500.02235174447, 3668.3235965160843, 1290.8802975273488, -0.096, 0.984, -0.08, 192.0, 0.0, 0.0, 0.0, 0.0, 0.0, 0.0, 0.0, 0.0, 0.0, 1.6961090585625713E9, 0.0, 2023-09-30 16:24:18.562
128.0, 26534.582857439862, 17018.08178640387, -187500.02235174447, -181265.5843812924, 31761.113615168768, -187500.02235174447, 3515.929402819801, 1011.2152709025469, -0.098, 0.984, -0.08600000000000001, 192.0, 252.0, 240.0, 30.0, 192.0, 253.0, 80.0, 0.0, 0.0, 0.0, 1.696109058562584E9, 0.0, 2023-09-30 16:24:18.562
129.0, 26532.995883583535, 17074.89992080926, -187500.02235174447, -182115.77768513892, 31522.396984386087, -187500.02235174447, 3152.4006309986867, 396.4081879148708, -0.098, 0.984, -0.08600000000000001, 192.0, 0.0, 0.0, 0.0, 0.0, 0.0, 0.0, 0.0, 0.0, 0.0, 1.696109058562596E9, 0.0, 2023-09-30 16:24:18.562
130.0, 26630.51654464204, 17056.839711289373, -187500.02235174447, -181887.40991203903, 31609.747601717427, -187500.02235174447, 3246.8367513223593, 600.8819461920198, -0.098, 0.984, -0.08600000000000001, 192.0, 0.0, 0.0, 0.0, 0.0, 0.0, 0.0, 0.0, 0.0, 0.0, 1.6961090585626075E9, 0.0, 2023-09-30 16:24:18.562
131.0, 26663.37360899134, 17017.5676962814, -187500.02235174447, -181060.06009102587, 31844.820898153892, -187500.02235174447, 3592.5511828125937, 1224.5626717284526, -0.098, 0.984, -0.08600000000000001, 192.0, 0.0, 0.0, 0.0, 0.0, 0.0, 0.0, 0.0, 0.0, 0.0, 1.6961090585626187E9, 0.0, 2023-09-30 16:24:18.562
132.0, 26572.603174758337, 17012.56090552341, -187500.02235174447, -181096.53813797692, 31810.287452970442, -187500.02235174447, 3573.7086622367697, 1174.3159501929224, -0.098, 0.984, -0.08600000000000001, 192.0, 0.0, 0.0, 0.0, 0.0, 0.0, 0.0, 0.0, 0.0, 0.0, 1.6961090585626304E9, 0.0, 2023-09-30 16:24:18.562
133.0, 26524.457517201605, 17059.723086324106, -187500.02235174447, -181980.66138990657, 31569.53681344233, -187500.02235174447, 3210.6269253047617, 543.2144454973276, -0.098, 0.984, -0.08600000000000001, 192.0, 0.0, 0.0, 0.0, 0.0, 0.0, 0.0, 0.0, 0.0, 0.0, 1.6961090585626423E9, 0.0, 2023-09-30 16:24:18.562
134.0, 26614.780916545504, 17073.961147542137, -187500.02235174447, -181940.80822954277, 31603.757334203405, -187500.02235174447, 3225.870815023281, 618.6962865228995, -0.098, 0.984, -0.08600000000000001, 192.0, 0.0, 0.0, 0.0, 0.0, 0.0, 0.0, 0.0, 0.0, 0.0, 1.696109058562653E9, 0.0, 2023-09-30 16:24:18.562
135.0, 26661.69722815719, 17042.065208204414, -187500.02235174447, -181184.62636287528, 31808.678127369658, -187500.02235174447, 3526.8370541139907, 1188.7328253665955, -0.098, 0.984, -0.08600000000000001, 192.0, 0.0, 0.0, 0.0, 0.0, 0.0, 0.0, 0.0, 0.0, 0.0, 1.6961090585626638E9, 0.0, 2023-09-30 16:24:18.562
136.0, 26597.324204125907, 17021.389844583256, -187500.02235174447, -180967.25564804743, 31851.414662768206, -187500.02235174447, 3618.0992267250094, 1322.0609810425021, -0.098, 0.984, -0.08600000000000001, 192.0, 0.0, 0.0, 0.0, 0.0, 0.0, 0.0, 0.0, 0.0, 0.0, 1.6961090585626783E9, 0.0, 2023-09-30 16:24:18.562
137.0, 26508.34190944933, 17051.385885642278, -187500.02235174447, -181851.22243776591, 31603.712630714494, -187500.02235174447, 3258.1914375056554, 663.3997754335136, -0.098, 0.984, -0.08600000000000001, 192.0, 0.0, 0.0, 0.0, 0.0, 0.0, 0.0, 0.0, 0.0, 0.0, 1.69610905856269E9, 0.0, 2023-09-30 16:24:18.562
138.0, 26588.942299955168, 17064.506359637544, -187500.02235174447, -182004.48834949595, 31583.52900547135, -187500.02235174447, 3196.880602464748, 575.8256406576205, -0.098, 0.996, -0.078, 192.0, 252.0, 240.0, 31.0, 32.0, 253.0, 144.0, 0.0, 0.0, 0.0, 1.6961090585627017E9, 0.0, 2023-09-30 16:24:18.562
139.0, 26651.348370474385, 17038.153652924735, -187500.02235174447, -181289.72426530413, 31789.634441093738, -187500.02235174447, 3490.9848560076784, 1102.298629557923, -0.098, 0.996, -0.078, 192.0, 0.0, 0.0, 0.0, 0.0, 0.0, 0.0, 0.0, 0.0, 0.0, 1.6961090585627148E9, 0.0, 2023-09-30 16:24:18.562
140.0, 26618.960692758643, 17018.819393970894, -187500.02235174447, -180854.82637343722, 31891.78191325449, -187500.02235174447, 3667.8989133714335, 1383.193002127767, -0.098, 0.996, -0.078, 192.0, 0.0, 0.0, 0.0, 0.0, 0.0, 0.0, 0.0, 0.0, 0.0, 1.696109058562743E9, 0.0, 2023-09-30 16:24:18.562
141.0, 26527.229133514065, 17061.846502047363, -187500.02235174447, -181674.30838040216, 31652.014750482413, -187500.02235174447, 3331.9521942081687, 753.0526224437502, -0.098, 0.996, -0.078, 192.0, 0.0, 0.0, 0.0, 0.0, 0.0, 0.0, 0.0, 0.0, 0.0, 1.6961090585627716E9, 0.0, 2023-09-30 16:24:18.562
142.0, 26593.83733199088, 17094.36829022983, -187500.02235174447, -182037.50187605643, 31571.079083809745, -187500.02235174447, 3181.7261197240496, 513.9336602608753, -0.098, 0.996, -0.078, 192.0, 0.0, 0.0, 0.0, 0.0, 0.0, 0.0, 0.0, 0.0, 0.0, 1.696109058562784E9, 0.0, 2023-09-30 16:24:18.562
143.0, 26660.51258570106, 17070.80955157394, -187500.02235174447, -181447.30406371405, 31738.381891057717, -187500.02235174447, 3414.452482992707, 962.600226712254, -0.098, 0.996, -0.078, 192.0, 0.0, 0.0, 0.0, 0.0, 0.0, 0.0, 0.0, 0.0, 0.0, 1.6961090585627952E9, 0.0, 2023-09-30 16:24:18.562
144.0, 26633.37756793232, 17049.150711196748, -187500.02235174447, -180884.6436005406, 31866.72560772009, -187500.02235174447, 3625.0953227395207, 1354.001623869136, -0.098, 0.996, -0.078, 192.0, 0.0, 0.0, 0.0, 0.0, 0.0, 0.0, 0.0, 0.0, 0.0, 1.696109058562808E9, 0.0, 2023-09-30 16:24:18.562
145.0, 26529.374900981773, 17061.824150302906, -187500.02235174447, -181550.36795739748, 31675.729951349495, -187500.02235174447, 3357.1426102092996, 846.1476381001041, -0.098, 0.996, -0.078, 192.0, 0.0, 0.0, 0.0, 0.0, 0.0, 0.0, 0.0, 0.0, 0.0, 1.6961090585628211E9, 0.0, 2023-09-30 16:24:18.562
146.0, 26568.915136923213, 17093.921255340727, -187500.02235174447, -182121.99147009748, 31529.393080400598, -187500.02235174447, 3116.436674170098, 445.49261873872507, -0.098, 0.996, -0.078, 192.0, 0.0, 0.0, 0.0, 0.0, 0.0, 0.0, 0.0, 0.0, 0.0, 1.6961090585628347E9, 0.0, 2023-09-30 16:24:18.562
147.0, 26655.08111179842, 17066.406257916246, -187500.02235174447, -181644.17822887638, 31675.41702692712, -187500.02235174447, 3315.2777928445093, 807.5238236813335, -0.098, 0.996, -0.078, 192.0, 0.0, 0.0, 0.0, 0.0, 0.0, 0.0, 0.0, 0.0, 0.0, 1.6961090585628476E9, 0.0, 2023-09-30 16:24:18.562
148.0, 26663.597126435892, 17040.388827370265, -187500.02235174447, -180950.42478447256, 31846.765499921505, -187500.02235174447, 3589.667807777859, 1288.6004195929074, -0.098, 0.996, -0.078, 192.0, 0.0, 0.0, 0.0, 0.0, 0.0, 0.0, 0.0, 0.0, 0.0, 1.6961090585628617E9, 0.0, 2023-09-30 16:24:18.562
149.0, 26552.196032070642, 17043.786292527475, -187500.02235174447, -181385.32267633948, 31716.812457658347, -187500.02235174447, 3419.861605150891, 932.5147786754106, -0.088, 0.99, -0.082, 192.0, 253.0, 64.0, 30.0, 240.0, 253.0, 112.0, 0.0, 0.0, 0.0, 1.6961090585628755E9, 0.0, 2023-09-30 16:24:18.562
0.0, 0.0, 0.0, 0.0, 0.0, 0.0, 0.0, 0.0, 0.0, -0.134, 0.99, -0.038, 192.0, 251.0, 208.0, 30.0, 240.0, 254.0, 208.0, 0.0, 0.0, 0.0, 1.6961090586190848E9, 0.0, 2023-09-30 16:24:18.619
1.0, 27376.081332693262, 18113.92076181421, -187500.02235174447, -187500.02235174447, 28168.62948758954, -187500.02235174447, 4366.413279344235, -700.0119328513066, -0.134, 0.99, -0.038, 192.0, 0.0, 0.0, 0.0, 0.0, 0.0, 0.0, 0.0, 0.0, 0.0, 1.696109059112178E9, 0.0, 2023-09-30 16:24:19.112
2.0, 27303.63932891361, 18059.62837453227, -187500.02235174447, -187500.02235174447, 28195.63039489155, -187500.02235174447, 4445.829027393941, -560.7382131502883, -0.134, 0.99, -0.038, 192.0, 0.0, 0.0, 0.0, 0.0, 0.0, 0.0, 0.0, 0.0, 0.0, 1.696109059112403E9, 0.0, 2023-09-30 16:24:19.112
3.0, 27269.01647675234, 18024.75965318199, -187500.02235174447, -187500.02235174447, 28069.432445696886, -187500.02235174447, 4257.627339080255, -967.1152790922259, -0.134, 0.99, -0.038, 192.0, 0.0, 0.0, 0.0, 0.0, 0.0, 0.0, 0.0, 0.0, 0.0, 1.6961090591124172E9, 0.0, 2023-09-30 16:24:19.112
4.0, 27362.737341253443, 18023.396196770216, -187500.02235174447, -187500.02235174447, 28070.393570708464, -187500.02235174447, 4211.716855969054, -1088.619361951275, -0.134, 0.99, -0.038, 192.0, 0.0, 0.0, 0.0, 0.0, 0.0, 0.0, 0.0, 0.0, 0.0, 1.6961090591124282E9, 0.0, 2023-09-30 16:24:19.112
5.0, 27376.6624780491, 18020.110490335286, -187500.02235174447, -187500.02235174447, 28149.764615269258, -187500.02235174447, 4337.020735385506, -822.3653819996574, -0.134, 0.99, -0.038, 192.0, 0.0, 0.0, 0.0, 0.0, 0.0, 0.0, 0.0, 0.0, 0.0, 1.6961090591124392E9, 0.0, 2023-09-30 16:24:19.112
6.0, 27323.912361134575, 17970.757838577967, -187500.02235174447, -187500.02235174447, 28186.175606986955, -187500.02235174447, 4434.407285977279, -629.6262895615447, -0.134, 0.99, -0.038, 192.0, 0.0, 0.0, 0.0, 0.0, 0.0, 0.0, 0.0, 0.0, 0.0, 1.69610905911245E9, 0.0, 2023-09-30 16:24:19.112
7.0, 27259.986371992396, 17953.882271514212, -187500.02235174447, -187500.02235174447, 28081.23416676929, -187500.02235174447, 4287.869249328286, -978.693482720075, -0.134, 0.99, -0.038, 192.0, 0.0, 0.0, 0.0, 0.0, 0.0, 0.0, 0.0, 0.0, 0.0, 1.6961090591124609E9, 0.0, 2023-09-30 16:24:19.112
8.0, 27355.540079538834, 17976.815161325358, -187500.02235174447, -187500.02235174447, 28063.017495038213, -187500.02235174447, 4203.513765753957, -1190.0292265450032, -0.156, 0.98, -0.01, 192.0, 251.0, 32.0, 30.0, 160.0, 255.0, 176.0, 0.0, 0.0, 0.0, 1.6961090591124716E9, 0.0, 2023-09-30 16:24:19.112
9.0, 27381.624565318176, 17973.8423793128, -187500.02235174447, -187500.02235174447, 28154.346722882598, -187500.02235174447, 4332.5727382389, -934.8393600987625, -0.156, 0.98, -0.01, 192.0, 0.0, 0.0, 0.0, 0.0, 0.0, 0.0, 0.0, 0.0, 0.0, 1.6961090591124828E9, 0.0, 2023-09-30 16:24:19.112
10.0, 27311.283625517324, 17963.717039074545, -187500.02235174447, -187500.02235174447, 28202.49238043933, -187500.02235174447, 4441.045754080505, -682.868144854086, -0.156, 0.98, -0.01, 192.0, 0.0, 0.0, 0.0, 0.0, 0.0, 0.0, 0.0, 0.0, 0.0, 1.6961090591124935E9, 0.0, 2023-09-30 16:24:19.112
11.0, 27229.677406511, 17946.34973363277, -187500.02235174447, -187500.02235174447, 28099.33907977809, -187500.02235174447, 4304.007208825017, -975.05014837386, -0.156, 0.98, -0.01, 192.0, 0.0, 0.0, 0.0, 0.0, 0.0, 0.0, 0.0, 0.0, 0.0, 1.6961090591125042E9, 0.0, 2023-09-30 16:24:19.112
12.0, 27324.02411985685, 17976.211664225062, -187500.02235174447, -187500.02235174447, 28052.69098909986, -187500.02235174447, 4180.916152109641, -1263.7676315030612, -0.156, 0.98, -0.01, 192.0, 0.0, 0.0, 0.0, 0.0, 0.0, 0.0, 0.0, 0.0, 0.0, 1.696109059112515E9, 0.0, 2023-09-30 16:24:19.112
13.0, 27376.03662920435, 17999.725699392045, -187500.02235174447, -187500.02235174447, 28125.62473125753, -187500.02235174447, 4271.84304855383, -1088.8875828847388, -0.156, 0.98, -0.01, 192.0, 0.0, 0.0, 0.0, 0.0, 0.0, 0.0, 0.0, 0.0, 0.0, 1.6961090591125257E9, 0.0, 2023-09-30 16:24:19.112
14.0, 27347.02406490136, 17998.98809182502, -187500.02235174447, -187500.02235174447, 28201.397144961018, -187500.02235174447, 4419.521024170044, -783.5851053696997, -0.156, 0.98, -0.01, 192.0, 0.0, 0.0, 0.0, 0.0, 0.0, 0.0, 0.0, 0.0, 0.0, 1.6961090591125362E9, 0.0, 2023-09-30 16:24:19.112
15.0, 27255.471319612425, 17979.117391004253, -187500.02235174447, -187500.02235174447, 28134.207801128367, -187500.02235174447, 4347.347241323858, -967.4282035146003, -0.156, 0.98, -0.01, 192.0, 0.0, 0.0, 0.0, 0.0, 0.0, 0.0, 0.0, 0.0, 0.0, 1.6961090591125467E9, 0.0, 2023-09-30 16:24:19.112
16.0, 27307.059145815274, 18013.695539676613, -187500.02235174447, -187500.02235174447, 28060.737617103772, -187500.02235174447, 4200.473928508035, -1322.195091509234, -0.156, 0.98, -0.01, 192.0, 0.0, 0.0, 0.0, 0.0, 0.0, 0.0, 0.0, 0.0, 0.0, 1.6961090591125576E9, 0.0, 2023-09-30 16:24:19.112
17.0, 27367.94529771153, 18057.504958809015, -187500.02235174447, -187500.02235174447, 28115.164114852443, -187500.02235174447, 4256.465048368579, -1226.5966804738857, -0.156, 0.98, -0.01, 192.0, 0.0, 0.0, 0.0, 0.0, 0.0, 0.0, 0.0, 0.0, 0.0, 1.6961090591125684E9, 0.0, 2023-09-30 16:24:19.112
18.0, 27345.705311978498, 18067.764409514002, -187500.02235174447, -187500.02235174447, 28202.604139161605, -187500.02235174447, 4419.766893359053, -897.8025195363188, -0.17200000000000001, 0.98, 0.004, 192.0, 250.0, 160.0, 30.0, 160.0, 0.0, 32.0, 0.0, 0.0, 0.0, 1.696109059112579E9, 0.0, 2023-09-30 16:24:19.112
19.0, 27257.080645213206, 18054.375714585272, -187500.02235174447, -187500.02235174447, 28152.111548437068, -187500.02235174447, 4386.2839801650025, -989.6905409920861, -0.17200000000000001, 0.98, 0.004, 192.0, 0.0, 0.0, 0.0, 0.0, 0.0, 0.0, 0.0, 0.0, 0.0, 1.6961090591125896E9, 0.0, 2023-09-30 16:24:19.112
20.0, 27294.676279387033, 18080.01316547551, -187500.02235174447, -187500.02235174447, 28045.44902389634, -187500.02235174447, 4195.936524383607, -1420.2745461791214, -0.17200000000000001, 0.98, 0.004, 192.0, 0.0, 0.0, 0.0, 0.0, 0.0, 0.0, 0.0, 0.0, 0.0, 1.6961090591126003E9, 0.0, 2023-09-30 16:24:19.112
21.0, 27364.637239532145, 18117.45233743815, -187500.02235174447, -187500.02235174447, 28073.768684121216, -187500.02235174447, 4194.170736571638, -1439.6982121107833, -0.17200000000000001, 0.98, 0.004, 192.0, 0.0, 0.0, 0.0, 0.0, 0.0, 0.0, 0.0, 0.0, 0.0, 1.6961090591126108E9, 0.0, 2023-09-30 16:24:19.112
22.0, 27342.419605543568, 18119.30753222794, -187500.02235174447, -187500.02235174447, 28170.752903312794, -187500.02235174447, 4354.678613505199, -1122.7951792234396, -0.17200000000000001, 0.98, 0.004, 192.0, 0.0, 0.0, 0.0, 0.0, 0.0, 0.0, 0.0, 0.0, 0.0, 1.6961090591126215E9, 0.0, 2023-09-30 16:24:19.112
23.0, 27285.847340327186, 18103.14722098675, -187500.02235174447, -187500.02235174447, 28185.885034309034, -187500.02235174447, 4407.1828612307145, -1066.5805419183423, -0.17200000000000001, 0.98, 0.004, 192.0, 0.0, 0.0, 0.0, 0.0, 0.0, 0.0, 0.0, 0.0, 0.0, 1.6961090591126325E9, 0.0, 2023-09-30 16:24:19.112
24.0, 27280.39351468009, 18116.245343237562, -187500.02235174447, -187500.02235174447, 28065.54324216166, -187500.02235174447, 4210.509861768468, -1501.5007855297072, -0.17200000000000001, 0.98, 0.004, 192.0, 0.0, 0.0, 0.0, 0.0, 0.0, 0.0, 0.0, 0.0, 0.0, 1.696109059112644E9, 0.0, 2023-09-30 16:24:19.112
25.0, 27384.79851303083, 18155.62911696781, -187500.02235174447, -187500.02235174447, 28069.164224763423, -187500.02235174447, 4172.10956479425, -1592.7182546518154, -0.17200000000000001, 0.98, 0.004, 192.0, 0.0, 0.0, 0.0, 0.0, 0.0, 0.0, 0.0, 0.0, 0.0, 1.6961090591126544E9, 0.0, 2023-09-30 16:24:19.112
26.0, 27377.109512938205, 18165.754457206065, -187500.02235174447, -187500.02235174447, 28168.651839333994, -187500.02235174447, 4336.90897666323, -1267.455669338187, -0.17200000000000001, 0.98, 0.004, 192.0, 0.0, 0.0, 0.0, 0.0, 0.0, 0.0, 0.0, 0.0, 0.0, 1.6961090591126652E9, 0.0, 2023-09-30 16:24:19.112
27.0, 27306.478000459436, 18141.748683661066, -187500.02235174447, -187500.02235174447, 28204.191113017932, -187500.02235174447, 4428.349963229891, -1095.5036992435098, -0.17200000000000001, 0.98, 0.004, 192.0, 0.0, 0.0, 0.0, 0.0, 0.0, 0.0, 0.0, 0.0, 0.0, 1.6961090591126757E9, 0.0, 2023-09-30 16:24:19.112
28.0, 27261.171014448526, 18142.910974372742, -187500.02235174447, -187500.02235174447, 28093.460570986343, -187500.02235174447, 4265.182228706149, -1455.992633818702, -0.17200000000000001, 0.98, 0.004, 192.0, 0.0, 0.0, 0.0, 0.0, 0.0, 0.0, 0.0, 0.0, 0.0, 1.6961090591126864E9, 0.0, 2023-09-30 16:24:19.112
29.0, 27359.74220749643, 18182.60767252537, -187500.02235174447, -187500.02235174447, 28059.284753714175, -187500.02235174447, 4173.048338061373, -1623.6754207224155, -0.17200000000000001, 0.974, 0.01, 192.0, 250.0, 160.0, 30.0, 112.0, 0.0, 80.0, 0.0, 0.0, 0.0, 1.6961090591126976E9, 0.0, 2023-09-30 16:24:19.112
30.0, 27381.17753042907, 18195.75049826509, -187500.02235174447, -187500.02235174447, 28142.924981465934, -187500.02235174447, 4300.095653545339, -1332.1416177918456, -0.17200000000000001, 0.974, 0.01, 192.0, 0.0, 0.0, 0.0, 0.0, 0.0, 0.0, 0.0, 0.0, 0.0, 1.6961090591127083E9, 0.0, 2023-09-30 16:24:19.112
31.0, 27329.589704226222, 18188.88851271731, -187500.02235174447, -187500.02235174447, 28185.01331627528, -187500.02235174447, 4403.15954722876, -1079.4774984690546, -0.17200000000000001, 0.974, 0.01, 192.0, 0.0, 0.0, 0.0, 0.0, 0.0, 0.0, 0.0, 0.0, 0.0, 1.6961090591127188E9, 0.0, 2023-09-30 16:24:19.112
32.0, 27260.50046211487, 18167.184968851205, -187500.02235174447, -187500.02235174447, 28090.152512806955, -187500.02235174447, 4271.932455531652, -1356.12503959239, -0.17200000000000001, 0.974, 0.01, 192.0, 0.0, 0.0, 0.0, 0.0, 0.0, 0.0, 0.0, 0.0, 0.0, 1.6961090591127295E9, 0.0, 2023-09-30 16:24:19.112
33.0, 27353.863698704685, 18194.163524408763, -187500.02235174447, -187500.02235174447, 28060.670561870407, -187500.02235174447, 4180.625579431722, -1554.4520681443296, -0.17200000000000001, 0.974, 0.01, 192.0, 0.0, 0.0, 0.0, 0.0, 0.0, 0.0, 0.0, 0.0, 0.0, 1.69610905911274E9, 0.0, 2023-09-30 16:24:19.112
34.0, 27389.917062511096, 18207.909847248775, -187500.02235174447, -187500.02235174447, 28136.890010463, -187500.02235174447, 4287.265752227992, -1312.7850070935497, -0.17200000000000001, 0.974, 0.01, 192.0, 0.0, 0.0, 0.0, 0.0, 0.0, 0.0, 0.0, 0.0, 0.0, 1.6961090591127508E9, 0.0, 2023-09-30 16:24:19.112
35.0, 27351.74028298143, 18192.285977874515, -187500.02235174447, -187500.02235174447, 28208.750868886815, -187500.02235174447, 4434.563748188466, -990.1822793701028, -0.17200000000000001, 0.974, 0.01, 192.0, 0.0, 0.0, 0.0, 0.0, 0.0, 0.0, 0.0, 0.0, 0.0, 1.6961090591127615E9, 0.0, 2023-09-30 16:24:19.112
36.0, 27263.517947616336, 18159.630079225313, -187500.02235174447, -187500.02235174447, 28131.346777838087, -187500.02235174447, 4347.436648301679, -1189.0233980445146, -0.17200000000000001, 0.974, 0.01, 192.0, 0.0, 0.0, 0.0, 0.0, 0.0, 0.0, 0.0, 0.0, 0.0, 1.696109059112772E9, 0.0, 2023-09-30 16:24:19.112
37.0, 27331.98134088294, 18195.862256987366, -187500.02235174447, -187500.02235174447, 28063.576288649594, -187500.02235174447, 4196.987056373007, -1500.9643436627798, -0.17200000000000001, 0.974, 0.01, 192.0, 0.0, 0.0, 0.0, 0.0, 0.0, 0.0, 0.0, 0.0, 0.0, 1.6961090591127827E9, 0.0, 2023-09-30 16:24:19.112
38.0, 27396.220254447493, 18216.69408281971, -187500.02235174447, -187500.02235174447, 28142.992036699303, -187500.02235174447, 4283.354196948314, -1321.5692426644855, -0.17200000000000001, 0.974, 0.01, 192.0, 0.0, 0.0, 0.0, 0.0, 0.0, 0.0, 0.0, 0.0, 0.0, 1.6961090591127932E9, 0.0, 2023-09-30 16:24:19.112
39.0, 27370.873376235173, 18212.715472306667, -187500.02235174447, -187500.02235174447, 28238.411633779007, -187500.02235174447, 4458.703632200198, -953.1901422965697, -0.182, 0.978, 0.008, 192.0, 250.0, 80.0, 30.0, 144.0, 0.0, 64.0, 0.0, 0.0, 0.0, 1.6961090591128037E9, 0.0, 2023-09-30 16:24:19.112
40.0, 27273.956212276964, 18176.34918407788, -187500.02235174447, -187500.02235174447, 28196.859740836593, -187500.02235174447, 4430.473378953145, -1038.7973235603956, -0.182, 0.978, 0.008, 192.0, 0.0, 0.0, 0.0, 0.0, 0.0, 0.0, 0.0, 0.0, 0.0, 1.6961090591128144E9, 0.0, 2023-09-30 16:24:19.112
41.0, 27318.302073276293, 18202.210152412674, -187500.02235174447, -187500.02235174447, 28107.676280459917, -187500.02235174447, 4261.673004826665, -1405.2318221606997, -0.182, 0.978, 0.008, 192.0, 0.0, 0.0, 0.0, 0.0, 0.0, 0.0, 0.0, 0.0, 0.0, 1.696109059112825E9, 0.0, 2023-09-30 16:24:19.112
42.0, 27407.99962377544, 18229.971019026165, -187500.02235174447, -187500.02235174447, 28153.273839148744, -187500.02235174447, 4295.46884244309, -1335.002641082125, -0.182, 0.978, 0.008, 192.0, 0.0, 0.0, 0.0, 0.0, 0.0, 0.0, 0.0, 0.0, 0.0, 1.696109059112836E9, 0.0, 2023-09-30 16:24:19.112
43.0, 27383.65857406361, 18236.475376662656, -187500.02235174447, -187500.02235174447, 28228.10747958511, -187500.02235174447, 4433.826140621441, -1016.8032070163736, -0.182, 0.978, 0.008, 192.0, 0.0, 0.0, 0.0, 0.0, 0.0, 0.0, 0.0, 0.0, 0.0, 1.6961090591128464E9, 0.0, 2023-09-30 16:24:19.112
44.0, 27295.860921843163, 18216.068233974962, -187500.02235174447, -187500.02235174447, 28185.460351164384, -187500.02235174447, 4406.668771108243, -1060.277349981946, -0.182, 0.978, 0.008, 192.0, 0.0, 0.0, 0.0, 0.0, 0.0, 0.0, 0.0, 0.0, 0.0, 1.696109059112857E9, 0.0, 2023-09-30 16:24:19.112
45.0, 27305.762744636864, 18221.879687533343, -187500.02235174447, -187500.02235174447, 28084.65398367095, -187500.02235174447, 4224.904385197686, -1465.9168083568584, -0.182, 0.978, 0.008, 192.0, 0.0, 0.0, 0.0, 0.0, 0.0, 0.0, 0.0, 0.0, 0.0, 1.6961090591128678E9, 0.0, 2023-09-30 16:24:19.112
46.0, 27401.29410043885, 18252.389818714837, -187500.02235174447, -187500.02235174447, 28121.221437599834, -187500.02235174447, 4237.1307894147385, -1468.8672386249589, -0.182, 0.978, 0.008, 192.0, 0.0, 0.0, 0.0, 0.0, 0.0, 0.0, 0.0, 0.0, 0.0, 1.6961090591128783E9, 0.0, 2023-09-30 16:24:19.112
47.0, 27412.17939998858, 18248.56767041298, -187500.02235174447, -187500.02235174447, 28214.96465384539, -187500.02235174447, 4398.06334949295, -1136.1615224077134, -0.182, 0.978, 0.008, 192.0, 0.0, 0.0, 0.0, 0.0, 0.0, 0.0, 0.0, 0.0, 0.0, 1.696109059112889E9, 0.0, 2023-09-30 16:24:19.112
48.0, 27354.780120227355, 18224.114861978873, -187500.02235174447, -187500.02235174447, 28237.964598889903, -187500.02235174447, 4473.2769695850575, -1003.8168434878402, -0.182, 0.978, 0.008, 192.0, 0.0, 0.0, 0.0, 0.0, 0.0, 0.0, 0.0, 0.0, 0.0, 1.6961090591128995E9, 0.0, 2023-09-30 16:24:19.112
49.0, 27314.815201141264, 18233.32378069446, -187500.02235174447, -187500.02235174447, 28130.81033597116, -187500.02235174447, 4305.035389069962, -1376.7556997246386, -0.182, 0.978, 0.008, 192.0, 250.0, 80.0, 30.0, 144.0, 0.0, 64.0, 0.0, 0.0, 0.0, 1.6961090591129105E9, 0.0, 2023-09-30 16:24:19.112
50.0, 27403.685737095566, 18274.741563170144, -187500.02235174447, -187500.02235174447, 28129.782155726214, -187500.02235174447, 4256.777972790954, -1473.7175671717605, -0.182, 0.978, 0.008, 192.0, 0.0, 0.0, 0.0, 0.0, 0.0, 0.0, 0.0, 0.0, 0.0, 1.6961090591129208E9, 0.0, 2023-09-30 16:24:19.112
51.0, 27408.938397042562, 18276.864978893398, -187500.02235174447, -187500.02235174447, 28226.654616195516, -187500.02235174447, 4414.603640389877, -1140.0954294318474, -0.182, 0.978, 0.008, 192.0, 0.0, 0.0, 0.0, 0.0, 0.0, 0.0, 0.0, 0.0, 0.0, 1.6961090591129315E9, 0.0, 2023-09-30 16:24:19.112
52.0, 27340.27383807586, 18265.17501654327, -187500.02235174447, -187500.02235174447, 28240.847973924636, -187500.02235174447, 4490.59957153792, -954.2853777748797, -0.182, 0.978, 0.008, 192.0, 0.0, 0.0, 0.0, 0.0, 0.0, 0.0, 0.0, 0.0, 0.0, 1.696109059112942E9, 0.0, 2023-09-30 16:24:19.112
53.0, 27275.67729660002, 18252.23335650365, -187500.02235174447, -187500.02235174447, 28115.342928808088, -187500.02235174447, 4314.244307785548, -1324.229100254667, -0.182, 0.978, 0.008, 192.0, 0.0, 0.0, 0.0, 0.0, 0.0, 0.0, 0.0, 0.0, 0.0, 1.6961090591129527E9, 0.0, 2023-09-30 16:24:19.112
54.0, 27381.244585662436, 18287.258540065115, -187500.02235174447, -187500.02235174447, 28093.527626219708, -187500.02235174447, 4224.725571242043, -1521.6620590283942, -0.182, 0.978, 0.008, 192.0, 0.0, 0.0, 0.0, 0.0, 0.0, 0.0, 0.0, 0.0, 0.0, 1.6961090591129634E9, 0.0, 2023-09-30 16:24:19.112
55.0, 27408.267844708902, 18301.675415238788, -187500.02235174447, -187500.02235174447, 28164.91909800996, -187500.02235174447, 4330.38226728228, -1287.773405048061, -0.182, 0.978, 0.008, 192.0, 0.0, 0.0, 0.0, 0.0, 0.0, 0.0, 0.0, 0.0, 0.0, 1.6961090591129742E9, 0.0, 2023-09-30 16:24:19.112
56.0, 27363.251431375913, 18273.60162420292, -187500.02235174447, -187500.02235174447, 28237.517564000795, -187500.02235174447, 4477.0320626535495, -997.9383346960944, -0.182, 0.978, 0.008, 192.0, 0.0, 0.0, 0.0, 0.0, 0.0, 0.0, 0.0, 0.0, 0.0, 1.696109059112985E9, 0.0, 2023-09-30 16:24:19.112
57.0, 27260.656924326056, 18252.970964070675, -187500.02235174447, -187500.02235174447, 28113.71125146285, -187500.02235174447, 4315.183081052671, -1316.741265862139, -0.182, 0.978, 0.008, 192.0, 0.0, 0.0, 0.0, 0.0, 0.0, 0.0, 0.0, 0.0, 0.0, 1.6961090591129954E9, 0.0, 2023-09-30 16:24:19.112
58.0, 27341.234963087438, 18270.13710381235, -187500.02235174447, -187500.02235174447, 28050.41111116542, -187500.02235174447, 4176.356396240759, -1599.7143506663265, -0.182, 0.978, 0.008, 192.0, 0.0, 0.0, 0.0, 0.0, 0.0, 0.0, 0.0, 0.0, 0.0, 1.696109059113006E9, 0.0, 2023-09-30 16:24:19.113
59.0, 27386.05021072033, 18272.19346430224, -187500.02235174447, -187500.02235174447, 28134.453670317373, -187500.02235174447, 4289.098595273327, -1368.8208304430045, -0.182, 0.972, 0.008, 192.0, 250.0, 80.0, 30.0, 96.0, 0.0, 64.0, 0.0, 0.0, 0.0, 1.6961090591130164E9, 0.0, 2023-09-30 16:24:19.113
60.0, 27347.26993409037, 18275.05448759252, -187500.02235174447, -187500.02235174447, 28208.30383399771, -187500.02235174447, 4432.5967946763985, -1039.8255038053398, -0.182, 0.972, 0.008, 192.0, 0.0, 0.0, 0.0, 0.0, 0.0, 0.0, 0.0, 0.0, 0.0, 1.6961090591130333E9, 0.0, 2023-09-30 16:24:19.113
61.0, 27257.21475567994, 18238.174109241263, -187500.02235174447, -187500.02235174447, 28131.100908649078, -187500.02235174447, 4340.887587176274, -1226.0155351180476, -0.182, 0.972, 0.008, 192.0, 0.0, 0.0, 0.0, 0.0, 0.0, 0.0, 0.0, 0.0, 0.0, 1.6961090591130447E9, 0.0, 2023-09-30 16:24:19.113
62.0, 27326.393404769115, 18258.648307162322, -187500.02235174447, -187500.02235174447, 28059.21769848081, -187500.02235174447, 4186.772309156931, -1557.603664112528, -0.182, 0.972, 0.008, 192.0, 0.0, 0.0, 0.0, 0.0, 0.0, 0.0, 0.0, 0.0, 0.0, 1.6961090591130557E9, 0.0, 2023-09-30 16:24:19.113
63.0, 27388.173626443582, 18290.767763944597, -187500.02235174447, -187500.02235174447, 28114.672376474427, -187500.02235174447, 4241.042344694418, -1431.7856945736046, -0.182, 0.972, 0.008, 192.0, 0.0, 0.0, 0.0, 0.0, 0.0, 0.0, 0.0, 0.0, 0.0, 1.6961090591130664E9, 0.0, 2023-09-30 16:24:19.113
64.0, 27364.100797665214, 18287.52676099858, -187500.02235174447, -187500.02235174447, 28200.368964716075, -187500.02235174447, 4392.184840701204, -1087.9041061287053, -0.182, 0.972, 0.008, 192.0, 0.0, 0.0, 0.0, 0.0, 0.0, 0.0, 0.0, 0.0, 0.0, 1.6961090591130767E9, 0.0, 2023-09-30 16:24:19.113
65.0, 27284.10390425967, 18252.926260581764, -187500.02235174447, -187500.02235174447, 28163.980324742835, -187500.02235174447, 4366.636796788788, -1146.040993456959, -0.182, 0.972, 0.008, 192.0, 0.0, 0.0, 0.0, 0.0, 0.0, 0.0, 0.0, 0.0, 0.0, 1.6961090591130877E9, 0.0, 2023-09-30 16:24:19.113
66.0, 27329.589704226222, 18257.843644361932, -187500.02235174447, -187500.02235174447, 28085.57040519362, -187500.02235174447, 4212.879146680731, -1489.7884714351264, -0.182, 0.972, 0.008, 192.0, 0.0, 0.0, 0.0, 0.0, 0.0, 0.0, 0.0, 0.0, 0.0, 1.6961090591130981E9, 0.0, 2023-09-30 16:24:19.113
67.0, 27419.019033791905, 18284.129295841372, -187500.02235174447, -187500.02235174447, 28152.15625192598, -187500.02235174447, 4273.8770572992635, -1378.8791154478927, -0.182, 0.972, 0.008, 192.0, 0.0, 0.0, 0.0, 0.0, 0.0, 0.0, 0.0, 0.0, 0.0, 1.6961090591131089E9, 0.0, 2023-09-30 16:24:19.113
68.0, 27399.23773994896, 18292.801772690033, -187500.02235174447, -187500.02235174447, 28237.58461923416, -187500.02235174447, 4432.68620165422, -1004.9791341995161, -0.182, 0.972, 0.008, 192.0, 0.0, 0.0, 0.0, 0.0, 0.0, 0.0, 0.0, 0.0, 0.0, 1.6961090591131196E9, 0.0, 2023-09-30 16:24:19.113
69.0, 27323.21945705646, 18267.320784010983, -187500.02235174447, -187500.02235174447, 28223.190095804945, -187500.02235174447, 4452.445143752711, -942.0366218133714, -0.182, 0.972, 0.008, 192.0, 0.0, 0.0, 0.0, 0.0, 0.0, 0.0, 0.0, 0.0, 0.0, 1.69610905911313E9, 0.0, 2023-09-30 16:24:19.113
70.0, 27331.73547169393, 18268.10309506692, -187500.02235174447, -187500.02235174447, 28112.146629350977, -187500.02235174447, 4268.803211307909, -1322.6868298872507, -0.186, 0.972, 0.0, 192.0, 250.0, 48.0, 30.0, 96.0, 0.0, 0.0, 0.0, 0.0, 0.0, 1.6961090591131408E9, 0.0, 2023-09-30 16:24:19.113
71.0, 27425.881019339686, 18302.3683193169, -187500.02235174447, -187500.02235174447, 28138.700501763884, -187500.02235174447, 4259.929568759152, -1342.6692894302953, -0.186, 0.972, 0.0, 192.0, 0.0, 0.0, 0.0, 0.0, 0.0, 0.0, 0.0, 0.0, 0.0, 1.6961090591131516E9, 0.0, 2023-09-30 16:24:19.113
72.0, 27412.313510455315, 18312.80658397753, -187500.02235174447, -187500.02235174447, 28220.95492135941, -187500.02235174447, 4396.699893081176, -1016.177358171625, -0.186, 0.972, 0.0, 192.0, 0.0, 0.0, 0.0, 0.0, 0.0, 0.0, 0.0, 0.0, 0.0, 1.696109059113162E9, 0.0, 2023-09-30 16:24:19.113
73.0, 27344.632428244644, 18276.149723070826, -187500.02235174447, -187500.02235174447, 28232.846049409636, -187500.02235174447, 4465.923245659262, -854.6413009931208, -0.186, 0.972, 0.0, 192.0, 0.0, 0.0, 0.0, 0.0, 0.0, 0.0, 0.0, 0.0, 0.0, 1.6961090591131728E9, 0.0, 2023-09-30 16:24:19.113
74.0, 27303.46051495797, 18266.80669388851, -187500.02235174447, -187500.02235174447, 28122.070803889135, -187500.02235174447, 4300.5650401789, -1206.9494970976707, -0.186, 0.972, 0.0, 192.0, 0.0, 0.0, 0.0, 0.0, 0.0, 0.0, 0.0, 0.0, 0.0, 1.6961090591131835E9, 0.0, 2023-09-30 16:24:19.113
75.0, 27403.931606284572, 18302.234208850172, -187500.02235174447, -187500.02235174447, 28102.80360016866, -187500.02235174447, 4223.675039252644, -1340.83644638496, -0.186, 0.972, 0.0, 192.0, 0.0, 0.0, 0.0, 0.0, 0.0, 0.0, 0.0, 0.0, 0.0, 1.696109059113194E9, 0.0, 2023-09-30 16:24:19.113
76.0, 27416.180362246083, 18314.840592722965, -187500.02235174447, -187500.02235174447, 28178.82188306116, -187500.02235174447, 4342.698078477154, -1047.8497800647951, -0.186, 0.972, 0.0, 192.0, 0.0, 0.0, 0.0, 0.0, 0.0, 0.0, 0.0, 0.0, 0.0, 1.6961090591132047E9, 0.0, 2023-09-30 16:24:19.113
77.0, 27360.882146463653, 18285.358641786414, -187500.02235174447, -187500.02235174447, 28241.36206404711, -187500.02235174447, 4478.12729813186, -763.3791283821021, -0.186, 0.972, 0.0, 192.0, 0.0, 0.0, 0.0, 0.0, 0.0, 0.0, 0.0, 0.0, 0.0, 1.6961090591132152E9, 0.0, 2023-09-30 16:24:19.113
78.0, 27282.159302492062, 18270.584138701455, -187500.02235174447, -187500.02235174447, 28119.589760254596, -187500.02235174447, 4316.0771508308835, -1085.1101380717919, -0.186, 0.972, 0.0, 192.0, 0.0, 0.0, 0.0, 0.0, 0.0, 0.0, 0.0, 0.0, 0.0, 1.696109059113226E9, 0.0, 2023-09-30 16:24:19.113
79.0, 27367.006524444405, 18298.076784381483, -187500.02235174447, -187500.02235174447, 28073.23224225429, -187500.02235174447, 4196.607076717267, -1310.393370436832, -0.186, 0.972, 0.0, 192.0, 0.0, 0.0, 0.0, 0.0, 0.0, 0.0, 0.0, 0.0, 0.0, 1.6961090591132364E9, 0.0, 2023-09-30 16:24:19.113
80.0, 27398.544835870845, 18301.7201187277, -187500.02235174447, -187500.02235174447, 28154.480833349327, -187500.02235174447, 4307.739950149054, -1056.5893121468202, -0.184, 0.968, 0.008, 192.0, 250.0, 64.0, 30.0, 64.0, 0.0, 64.0, 0.0, 0.0, 0.0, 1.6961090591132472E9, 0.0, 2023-09-30 16:24:19.113
81.0, 27350.51093703639, 18281.022403362083, -187500.02235174447, -187500.02235174447, 28239.551572746226, -187500.02235174447, 4471.332367817446, -720.0167441388064, -0.184, 0.968, 0.008, 192.0, 0.0, 0.0, 0.0, 0.0, 0.0, 0.0, 0.0, 0.0, 0.0, 1.696109059113258E9, 0.0, 2023-09-30 16:24:19.113
82.0, 27261.595697593177, 18272.75225791362, -187500.02235174447, -187500.02235174447, 28144.422548344442, -187500.02235174447, 4356.667918761721, -966.176505825103, -0.184, 0.968, 0.008, 192.0, 0.0, 0.0, 0.0, 0.0, 0.0, 0.0, 0.0, 0.0, 0.0, 1.6961090591132689E9, 0.0, 2023-09-30 16:24:19.113
83.0, 27346.88995443463, 18298.568522759502, -187500.02235174447, -187500.02235174447, 28070.974716064302, -187500.02235174447, 4207.626486733733, -1278.6985967992064, -0.184, 0.968, 0.008, 192.0, 0.0, 0.0, 0.0, 0.0, 0.0, 0.0, 0.0, 0.0, 0.0, 1.6961090591132793E9, 0.0, 2023-09-30 16:24:19.113
84.0, 27403.171646973093, 18319.333293358482, -187500.02235174447, -187500.02235174447, 28135.683016262417, -187500.02235174447, 4289.32211271788, -1102.9021266582165, -0.184, 0.968, 0.008, 192.0, 0.0, 0.0, 0.0, 0.0, 0.0, 0.0, 0.0, 0.0, 0.0, 1.69610905911329E9, 0.0, 2023-09-30 16:24:19.113
85.0, 27370.94043146854, 18316.38286309038, -187500.02235174447, -187500.02235174447, 28210.829581121157, -187500.02235174447, 4438.2294342791365, -772.9680267534288, -0.184, 0.968, 0.008, 192.0, 0.0, 0.0, 0.0, 0.0, 0.0, 0.0, 0.0, 0.0, 0.0, 1.6961090591133003E9, 0.0, 2023-09-30 16:24:19.113
86.0, 27275.29731694428, 18274.115714325395, -187500.02235174447, -187500.02235174447, 28156.514842094763, -187500.02235174447, 4387.803898787964, -900.7529498044194, -0.184, 0.968, 0.008, 192.0, 0.0, 0.0, 0.0, 0.0, 0.0, 0.0, 0.0, 0.0, 0.0, 1.6961090591133113E9, 0.0, 2023-09-30 16:24:19.113
87.0, 27329.209724570483, 18289.113734854905, -187500.02235174447, -187500.02235174447, 28084.475169715308, -187500.02235174447, 4238.404838848691, -1243.2263783486342, -0.184, 0.968, 0.008, 192.0, 0.0, 0.0, 0.0, 0.0, 0.0, 0.0, 0.0, 0.0, 0.0, 1.6961090591133215E9, 0.0, 2023-09-30 16:24:19.113
88.0, 27401.629376605677, 18315.377034589892, -187500.02235174447, -187500.02235174447, 28122.584894011605, -187500.02235174447, 4267.506810129501, -1162.5812843538863, -0.184, 0.968, 0.008, 192.0, 0.0, 0.0, 0.0, 0.0, 0.0, 0.0, 0.0, 0.0, 0.0, 1.6961090591133325E9, 0.0, 2023-09-30 16:24:19.113
89.0, 27381.602213573722, 18310.839630465463, -187500.02235174447, -187500.02235174447, 28211.34367124363, -187500.02235174447, 4426.383009717823, -809.6695911490431, -0.184, 0.968, 0.008, 192.0, 0.0, 0.0, 0.0, 0.0, 0.0, 0.0, 0.0, 0.0, 0.0, 1.6961090591133432E9, 0.0, 2023-09-30 16:24:19.113
90.0, 27285.646174627087, 18285.626862719877, -187500.02235174447, -187500.02235174447, 28161.029894474734, -187500.02235174447, 4384.62995107531, -864.2525511089029, -0.186, 0.964, 0.014, 192.0, 250.0, 48.0, 30.0, 32.0, 0.0, 112.0, 0.0, 0.0, 0.0, 1.6961090591133537E9, 0.0, 2023-09-30 16:24:19.113
91.0, 27309.22726502744, 18282.25174930713, -187500.02235174447, -187500.02235174447, 28052.579230377585, -187500.02235174447, 4186.995826601485, -1269.8249542504495, -0.186, 0.964, 0.014, 192.0, 0.0, 0.0, 0.0, 0.0, 0.0, 0.0, 0.0, 0.0, 0.0, 1.6961090591133645E9, 0.0, 2023-09-30 16:24:19.113
92.0, 27398.701298082033, 18302.703595483734, -187500.02235174447, -187500.02235174447, 28103.384745524498, -187500.02235174447, 4215.02491414844, -1227.9377851412041, -0.186, 0.964, 0.014, 192.0, 0.0, 0.0, 0.0, 0.0, 0.0, 0.0, 0.0, 0.0, 0.0, 1.6961090591133747E9, 0.0, 2023-09-30 16:24:19.113
93.0, 27386.18432118706, 18303.307092584026, -187500.02235174447, -187500.02235174447, 28203.229988006355, -187500.02235174447, 4379.332587639402, -866.7335947434419, -0.186, 0.964, 0.014, 192.0, 0.0, 0.0, 0.0, 0.0, 0.0, 0.0, 0.0, 0.0, 0.0, 1.6961090591133854E9, 0.0, 2023-09-30 16:24:19.113
94.0, 27307.573235937743, 18270.226510790173, -187500.02235174447, -187500.02235174447, 28207.76739213078, -187500.02235174447, 4427.679410896231, -761.9262649925072, -0.186, 0.964, 0.014, 192.0, 0.0, 0.0, 0.0, 0.0, 0.0, 0.0, 0.0, 0.0, 0.0, 1.6961090591133962E9, 0.0, 2023-09-30 16:24:19.113
95.0, 27295.324479976236, 18259.497673451624, -187500.02235174447, -187500.02235174447, 28095.025193098212, -187500.02235174447, 4248.418420364669, -1141.391830610255, -0.186, 0.964, 0.014, 192.0, 0.0, 0.0, 0.0, 0.0, 0.0, 0.0, 0.0, 0.0, 0.0, 1.696109059113407E9, 0.0, 2023-09-30 16:24:19.113
96.0, 27396.868455036696, 18295.081650624474, -187500.02235174447, -187500.02235174447, 28107.922149648926, -187500.02235174447, 4219.182338617127, -1197.42765395971, -0.186, 0.964, 0.014, 192.0, 0.0, 0.0, 0.0, 0.0, 0.0, 0.0, 0.0, 0.0, 0.0, 1.6961090591134174E9, 0.0, 2023-09-30 16:24:19.113
97.0, 27388.777123543874, 18308.045662408553, -187500.02235174447, -187500.02235174447, 28205.129886285056, -187500.02235174447, 4378.550276583466, -850.7744492023527, -0.186, 0.964, 0.014, 192.0, 0.0, 0.0, 0.0, 0.0, 0.0, 0.0, 0.0, 0.0, 0.0, 1.696109059113428E9, 0.0, 2023-09-30 16:24:19.113
98.0, 27319.50906747688, 18289.940749399753, -187500.02235174447, -187500.02235174447, 28227.794555162738, -187500.02235174447, 4459.798867678508, -663.1092027555947, -0.186, 0.964, 0.014, 192.0, 0.0, 0.0, 0.0, 0.0, 0.0, 0.0, 0.0, 0.0, 0.0, 1.6961090591134386E9, 0.0, 2023-09-30 16:24:19.113
99.0, 27272.436293654002, 18273.84749339193, -187500.02235174447, -187500.02235174447, 28100.970757123323, -187500.02235174447, 4275.7546038335095, -1040.4960561389992, -0.186, 0.964, 0.014, 192.0, 0.0, 0.0, 0.0, 0.0, 0.0, 0.0, 0.0, 0.0, 0.0, 1.696109059113449E9, 0.0, 2023-09-30 16:24:19.113
100.0, 27372.974440213973, 18302.793002461553, -187500.02235174447, -187500.02235174447, 28078.060219056635, -187500.02235174447, 4188.426338246624, -1216.4489884911764, -0.188, 0.966, 0.018000000000000002, 192.0, 250.0, 32.0, 30.0, 48.0, 0.0, 144.0, 0.0, 0.0, 0.0, 1.69610905911346E9, 0.0, 2023-09-30 16:24:19.113
101.0, 27394.432114891068, 18307.442165308257, -187500.02235174447, -187500.02235174447, 28172.47398763585, -187500.02235174447, 4323.408523012224, -932.0006885529386, -0.188, 0.966, 0.018000000000000002, 192.0, 0.0, 0.0, 0.0, 0.0, 0.0, 0.0, 0.0, 0.0, 0.0, 1.6961090591134708E9, 0.0, 2023-09-30 16:24:19.113
102.0, 27337.390463041123, 18302.502429783635, -187500.02235174447, -187500.02235174447, 28232.287255798252, -187500.02235174447, 4458.301300800002, -651.5309991277455, -0.188, 0.966, 0.018000000000000002, 192.0, 0.0, 0.0, 0.0, 0.0, 0.0, 0.0, 0.0, 0.0, 0.0, 1.6961090591134813E9, 0.0, 2023-09-30 16:24:19.113
103.0, 27251.380950377104, 18278.921339383287, -187500.02235174447, -187500.02235174447, 28115.722908463827, -187500.02235174447, 4307.292915259947, -958.5098574769328, -0.188, 0.966, 0.018000000000000002, 192.0, 0.0, 0.0, 0.0, 0.0, 0.0, 0.0, 0.0, 0.0, 0.0, 1.6961090591134915E9, 0.0, 2023-09-30 16:24:19.113
104.0, 27355.85300396121, 18292.10886861192, -187500.02235174447, -187500.02235174447, 28086.30801276064, -187500.02235174447, 4200.518631996945, -1194.9689620696263, -0.188, 0.966, 0.018000000000000002, 192.0, 0.0, 0.0, 0.0, 0.0, 0.0, 0.0, 0.0, 0.0, 0.0, 1.6961090591135025E9, 0.0, 2023-09-30 16:24:19.113
105.0, 27399.23773994896, 18314.617075278413, -187500.02235174447, -187500.02235174447, 28168.96476375637, -187500.02235174447, 4307.292915259947, -963.6507587016534, -0.188, 0.966, 0.018000000000000002, 192.0, 0.0, 0.0, 0.0, 0.0, 0.0, 0.0, 0.0, 0.0, 0.0, 1.6961090591135128E9, 0.0, 2023-09-30 16:24:19.113
106.0, 27349.549812024812, 18305.542267029556, -187500.02235174447, -187500.02235174447, 28220.932569614957, -187500.02235174447, 4432.373277231846, -657.677728852955, -0.188, 0.966, 0.018000000000000002, 192.0, 0.0, 0.0, 0.0, 0.0, 0.0, 0.0, 0.0, 0.0, 0.0, 1.6961090591135235E9, 0.0, 2023-09-30 16:24:19.113
107.0, 27259.695799314475, 18267.65606017781, -187500.02235174447, -187500.02235174447, 28140.354530853576, -187500.02235174447, 4343.14511336626, -853.6801759815427, -0.188, 0.966, 0.018000000000000002, 192.0, 0.0, 0.0, 0.0, 0.0, 0.0, 0.0, 0.0, 0.0, 0.0, 1.696109059113534E9, 0.0, 2023-09-30 16:24:19.113
108.0, 27337.79279444132, 18304.24586585115, -187500.02235174447, -187500.02235174447, 28071.578213164594, -187500.02235174447, 4196.1600418281605, -1173.846563559361, -0.188, 0.966, 0.018000000000000002, 192.0, 0.0, 0.0, 0.0, 0.0, 0.0, 0.0, 0.0, 0.0, 0.0, 1.6961090591135447E9, 0.0, 2023-09-30 16:24:19.113
109.0, 27400.958824272016, 18323.602476549444, -187500.02235174447, -187500.02235174447, 28124.730661479316, -187500.02235174447, 4252.88876925573, -1037.4115154041667, -0.188, 0.966, 0.018000000000000002, 192.0, 0.0, 0.0, 0.0, 0.0, 0.0, 0.0, 0.0, 0.0, 0.0, 1.6961090591135557E9, 0.0, 2023-09-30 16:24:19.113
110.0, 27370.60515530171, 18311.845458965952, -187500.02235174447, -187500.02235174447, 28223.30185452722, -187500.02235174447, 4428.864053352363, -667.1101650130946, -0.188, 0.966, 0.018000000000000002, 192.0, 0.0, 0.0, 0.0, 0.0, 0.0, 0.0, 0.0, 0.0, 0.0, 1.696109059113566E9, 0.0, 2023-09-30 16:24:19.113
111.0, 27273.576232621224, 18278.38489751636, -187500.02235174447, -187500.02235174447, 28171.468159135362, -187500.02235174447, 4392.430709890212, -751.6221107986106, -0.188, 0.972, 0.014, 192.0, 250.0, 32.0, 30.0, 96.0, 0.0, 112.0, 0.0, 0.0, 0.0, 1.6961090591135767E9, 0.0, 2023-09-30 16:24:19.113
112.0, 27315.061070330274, 18289.896045910842, -187500.02235174447, -187500.02235174447, 28079.960117335337, -187500.02235174447, 4226.491359054013, -1108.1324348607582, -0.188, 0.972, 0.014, 192.0, 0.0, 0.0, 0.0, 0.0, 0.0, 0.0, 0.0, 0.0, 0.0, 1.6961090591135871E9, 0.0, 2023-09-30 16:24:19.113
113.0, 27397.5166556259, 18309.744394987156, -187500.02235174447, -187500.02235174447, 28130.653873759973, -187500.02235174447, 4273.6088363658, -1006.9013842226725, -0.188, 0.972, 0.014, 192.0, 0.0, 0.0, 0.0, 0.0, 0.0, 0.0, 0.0, 0.0, 0.0, 1.6961090591135979E9, 0.0, 2023-09-30 16:24:19.113
114.0, 27384.08325720826, 18308.604456019933, -187500.02235174447, -187500.02235174447, 28226.475802239875, -187500.02235174447, 4438.2294342791365, -631.0120977177737, -0.188, 0.972, 0.014, 192.0, 0.0, 0.0, 0.0, 0.0, 0.0, 0.0, 0.0, 0.0, 0.0, 1.6961090591136086E9, 0.0, 2023-09-30 16:24:19.113
115.0, 27285.73558160491, 18279.18956031675, -187500.02235174447, -187500.02235174447, 28193.037592534733, -187500.02235174447, 4432.529739443033, -605.3075915941706, -0.188, 0.972, 0.014, 192.0, 0.0, 0.0, 0.0, 0.0, 0.0, 0.0, 0.0, 0.0, 0.0, 1.696109059113619E9, 0.0, 2023-09-30 16:24:19.113
116.0, 27288.104866517173, 18284.15164758583, -187500.02235174447, -187500.02235174447, 28063.822157838604, -187500.02235174447, 4222.8703764522525, -1007.4601778340552, -0.188, 0.972, 0.014, 192.0, 0.0, 0.0, 0.0, 0.0, 0.0, 0.0, 0.0, 0.0, 0.0, 1.6961090591136296E9, 0.0, 2023-09-30 16:24:19.113
117.0, 27400.511789382912, 18306.704557741232, -187500.02235174447, -187500.02235174447, 28095.718097176326, -187500.02235174447, 4222.8703764522525, -996.0160846729381, -0.188, 0.972, 0.014, 192.0, 0.0, 0.0, 0.0, 0.0, 0.0, 0.0, 0.0, 0.0, 0.0, 1.6961090591136403E9, 0.0, 2023-09-30 16:24:19.113
118.0, 27397.94133877055, 18306.548095530045, -187500.02235174447, -187500.02235174447, 28202.62649090606, -187500.02235174447, 4401.751387328075, -613.3095161091705, -0.188, 0.972, 0.014, 192.0, 0.0, 0.0, 0.0, 0.0, 0.0, 0.0, 0.0, 0.0, 0.0, 1.6961090591136513E9, 0.0, 2023-09-30 16:24:19.113
119.0, 27305.6956894035, 18270.986470101652, -187500.02235174447, -187500.02235174447, 28219.92674111447, -187500.02235174447, 4479.043719654527, -454.2545025652054, -0.188, 0.972, 0.014, 192.0, 0.0, 0.0, 0.0, 0.0, 0.0, 0.0, 0.0, 0.0, 0.0, 1.6961090591136615E9, 0.0, 2023-09-30 16:24:19.113
120.0, 27272.16807272054, 18264.79503688753, -187500.02235174447, -187500.02235174447, 28100.07668734511, -187500.02235174447, 4298.285162244459, -831.4178385040568, -0.188, 0.972, 0.014, 192.0, 0.0, 0.0, 0.0, 0.0, 0.0, 0.0, 0.0, 0.0, 0.0, 1.6961090591136725E9, 0.0, 2023-09-30 16:24:19.113
121.0, 27382.585690329754, 18305.184639118273, -187500.02235174447, -187500.02235174447, 28099.450838500365, -187500.02235174447, 4243.545740073412, -939.6226334121983, -0.188, 0.976, 0.016, 192.0, 250.0, 32.0, 30.0, 128.0, 0.0, 128.0, 0.0, 0.0, 0.0, 1.6961090595929098E9, 0.0, 2023-09-30 16:24:19.592
122.0, 27401.04823124984, 18326.39644460636, -187500.02235174447, -187500.02235174447, 28178.978345272346, -187500.02235174447, 4372.716471280632, -642.7467635568099, -0.188, 0.976, 0.016, 192.0, 0.0, 0.0, 0.0, 0.0, 0.0, 0.0, 0.0, 0.0, 0.0, 1.6961090595930147E9, 0.0, 2023-09-30 16:24:19.593
123.0, 27355.741245238933, 18307.375110074892, -187500.02235174447, -187500.02235174447, 28218.809153891703, -187500.02235174447, 4475.310978330491, -421.30803123808283, -0.188, 0.976, 0.016, 192.0, 0.0, 0.0, 0.0, 0.0, 0.0, 0.0, 0.0, 0.0, 0.0, 1.696109059593043E9, 0.0, 2023-09-30 16:24:19.593
124.0, 27282.91926180354, 18290.52189475559, -187500.02235174447, -187500.02235174447, 28112.750126451272, -187500.02235174447, 4329.152921337238, -757.6347300570882, -0.188, 0.976, 0.016, 192.0, 0.0, 0.0, 0.0, 0.0, 0.0, 0.0, 0.0, 0.0, 0.0, 1.6961090595930667E9, 0.0, 2023-09-30 16:24:19.593
125.0, 27382.18335892956, 18326.843479495463, -187500.02235174447, -187500.02235174447, 28085.41394298243, -187500.02235174447, 4238.114266170772, -980.1239943652147, -0.188, 0.976, 0.016, 192.0, 0.0, 0.0, 0.0, 0.0, 0.0, 0.0, 0.0, 0.0, 0.0, 1.696109059593089E9, 0.0, 2023-09-30 16:24:19.593
126.0, 27411.75471684393, 18339.114587201428, -187500.02235174447, -187500.02235174447, 28166.394313144006, -187500.02235174447, 4354.298633849458, -753.8125817552307, -0.188, 0.976, 0.016, 192.0, 0.0, 0.0, 0.0, 0.0, 0.0, 0.0, 0.0, 0.0, 0.0, 1.6961090595931146E9, 0.0, 2023-09-30 16:24:19.593
127.0, 27358.781082484853, 18318.796851491556, -187500.02235174447, -187500.02235174447, 28230.946151130935, -187500.02235174447, 4491.068958171482, -480.9871889337527, -0.188, 0.976, 0.016, 192.0, 0.0, 0.0, 0.0, 0.0, 0.0, 0.0, 0.0, 0.0, 0.0, 1.6961090595931447E9, 0.0, 2023-09-30 16:24:19.593
128.0, 27261.036903981796, 18295.752202958134, -187500.02235174447, -187500.02235174447, 28127.41287081395, -187500.02235174447, 4356.667918761721, -772.9456750089736, -0.188, 0.976, 0.016, 192.0, 0.0, 0.0, 0.0, 0.0, 0.0, 0.0, 0.0, 0.0, 0.0, 1.696109059593171E9, 0.0, 2023-09-30 16:24:19.593
129.0, 27349.08042539125, 18320.897915470352, -187500.02235174447, -187500.02235174447, 28070.482977686286, -187500.02235174447, 4222.244527607504, -1074.9847978335379, -0.188, 0.976, 0.016, 192.0, 0.0, 0.0, 0.0, 0.0, 0.0, 0.0, 0.0, 0.0, 0.0, 1.6961090595931985E9, 0.0, 2023-09-30 16:24:19.593
130.0, 27400.08710623826, 18332.38671212038, -187500.02235174447, -187500.02235174447, 28129.357472581563, -187500.02235174447, 4300.453281456624, -910.0289237533717, -0.188, 0.976, 0.016, 192.0, 0.0, 0.0, 0.0, 0.0, 0.0, 0.0, 0.0, 0.0, 0.0, 1.696109059593232E9, 0.0, 2023-09-30 16:24:19.593
131.0, 27356.009466172396, 18310.39259557636, -187500.02235174447, -187500.02235174447, 28214.8081916342, -187500.02235174447, 4466.951425904206, -572.9199138784306, -0.188, 0.974, 0.016, 192.0, 250.0, 32.0, 30.0, 112.0, 0.0, 128.0, 0.0, 0.0, 0.0, 1.6961090595932543E9, 0.0, 2023-09-30 16:24:19.593
132.0, 27266.133101717605, 18274.67450793678, -187500.02235174447, -187500.02235174447, 28164.315600909664, -187500.02235174447, 4419.476320681134, -718.2286045823819, -0.188, 0.974, 0.016, 192.0, 0.0, 0.0, 0.0, 0.0, 0.0, 0.0, 0.0, 0.0, 0.0, 1.6961090595932891E9, 0.0, 2023-09-30 16:24:19.593
133.0, 27324.58291346823, 18304.84936295144, -187500.02235174447, -187500.02235174447, 28070.102998030547, -187500.02235174447, 4241.0646964388725, -1098.6999987006186, -0.188, 0.974, 0.016, 192.0, 0.0, 0.0, 0.0, 0.0, 0.0, 0.0, 0.0, 0.0, 0.0, 1.6961090595933206E9, 0.0, 2023-09-30 16:24:19.593
134.0, 27402.366984172702, 18339.38280813489, -187500.02235174447, -187500.02235174447, 28120.215609099345, -187500.02235174447, 4279.80026957992, -1011.2152709025469, -0.188, 0.974, 0.016, 192.0, 0.0, 0.0, 0.0, 0.0, 0.0, 0.0, 0.0, 0.0, 0.0, 1.6961090595933566E9, 0.0, 2023-09-30 16:24:19.593
135.0, 27382.876263007674, 18321.032025937086, -187500.02235174447, -187500.02235174447, 28221.62547369307, -187500.02235174447, 4452.981585619639, -656.4930863968237, -0.188, 0.974, 0.016, 192.0, 0.0, 0.0, 0.0, 0.0, 0.0, 0.0, 0.0, 0.0, 0.0, 1.6961090595934052E9, 0.0, 2023-09-30 16:24:19.593
136.0, 27277.823064067732, 18285.604510975423, -187500.02235174447, -187500.02235174447, 28170.48468237933, -187500.02235174447, 4420.795073603997, -733.0701629007058, -0.188, 0.974, 0.016, 192.0, 0.0, 0.0, 0.0, 0.0, 0.0, 0.0, 0.0, 0.0, 0.0, 1.6961090595934427E9, 0.0, 2023-09-30 16:24:19.593
137.0, 27298.185503266515, 18300.13314487137, -187500.02235174447, -187500.02235174447, 28076.786169622683, -187500.02235174447, 4247.03261220844, -1129.2548333710233, -0.188, 0.974, 0.016, 192.0, 0.0, 0.0, 0.0, 0.0, 0.0, 0.0, 0.0, 0.0, 0.0, 1.6961090595935457E9, 0.0, 2023-09-30 16:24:19.593
138.0, 27395.840274791753, 18333.303133643047, -187500.02235174447, -187500.02235174447, 28104.748201936272, -187500.02235174447, 4250.340670387825, -1121.9905164230486, -0.188, 0.974, 0.016, 192.0, 0.0, 0.0, 0.0, 0.0, 0.0, 0.0, 0.0, 0.0, 0.0, 1.6961090595935962E9, 0.0, 2023-09-30 16:24:19.593
139.0, 27400.355327171725, 18312.91834269981, -187500.02235174447, -187500.02235174447, 28214.227046278364, -187500.02235174447, 4439.190559290714, -748.8281427416972, -0.188, 0.974, 0.016, 192.0, 0.0, 0.0, 0.0, 0.0, 0.0, 0.0, 0.0, 0.0, 0.0, 1.6961090595936549E9, 0.0, 2023-09-30 16:24:19.593
140.0, 27309.137858049617, 18292.10886861192, -187500.02235174447, -187500.02235174447, 28200.145447271523, -187500.02235174447, 4463.93394040274, -706.2480695543372, -0.188, 0.974, 0.016, 192.0, 0.0, 0.0, 0.0, 0.0, 0.0, 0.0, 0.0, 0.0, 0.0, 1.696109059593706E9, 0.0, 2023-09-30 16:24:19.593
141.0, 27296.151494521084, 18277.647289949335, -187500.02235174447, -187500.02235174447, 28109.263254316244, -187500.02235174447, 4309.259868772015, -1092.3521032753115, -0.194, 0.97, 0.016, 192.0, 249.0, 240.0, 30.0, 80.0, 0.0, 128.0, 0.0, 0.0, 0.0, 1.696109059593754E9, 0.0, 2023-09-30 16:24:19.593
142.0, 27373.488530336446, 18308.09036589746, -187500.02235174447, -187500.02235174447, 28119.008614898758, -187500.02235174447, 4283.756528348509, -1170.0467670019589, -0.194, 0.97, 0.016, 192.0, 0.0, 0.0, 0.0, 0.0, 0.0, 0.0, 0.0, 0.0, 0.0, 1.696109059593821E9, 0.0, 2023-09-30 16:24:19.593
143.0, 27367.766483755888, 18321.7249300152, -187500.02235174447, -187500.02235174447, 28208.214427019888, -187500.02235174447, 4430.808655119974, -870.1981151340145, -0.194, 0.97, 0.016, 192.0, 0.0, 0.0, 0.0, 0.0, 0.0, 0.0, 0.0, 0.0, 0.0, 1.696109059593865E9, 0.0, 2023-09-30 16:24:19.593
144.0, 27301.895892846096, 18302.234208850172, -187500.02235174447, -187500.02235174447, 28214.53997070074, -187500.02235174447, 4483.804641223507, -748.4705148304123, -0.194, 0.97, 0.016, 192.0, 0.0, 0.0, 0.0, 0.0, 0.0, 0.0, 0.0, 0.0, 0.0, 1.6961090595938947E9, 0.0, 2023-09-30 16:24:19.593
145.0, 27257.59473533568, 18287.884388909864, -187500.02235174447, -187500.02235174447, 28076.003858566746, -187500.02235174447, 4280.694339358132, -1165.0623279884253, -0.194, 0.97, 0.016, 192.0, 0.0, 0.0, 0.0, 0.0, 0.0, 0.0, 0.0, 0.0, 0.0, 1.696109059593929E9, 0.0, 2023-09-30 16:24:19.593
146.0, 27374.159082670103, 18305.29639784055, -187500.02235174447, -187500.02235174447, 28082.754085392247, -187500.02235174447, 4235.655574280689, -1293.6966173287176, -0.194, 0.97, 0.016, 192.0, 0.0, 0.0, 0.0, 0.0, 0.0, 0.0, 0.0, 0.0, 0.0, 1.6961090595939658E9, 0.0, 2023-09-30 16:24:19.593
147.0, 27389.291213666347, 18308.33623508647, -187500.02235174447, -187500.02235174447, 28183.851025563603, -187500.02235174447, 4384.026453975017, -995.1890701280917, -0.194, 0.97, 0.016, 192.0, 0.0, 0.0, 0.0, 0.0, 0.0, 0.0, 0.0, 0.0, 0.0, 1.6961090595940137E9, 0.0, 2023-09-30 16:24:19.594
148.0, 27333.143631594616, 18295.595740746947, -187500.02235174447, -187500.02235174447, 28228.15218307402, -187500.02235174447, 4485.3692633353785, -768.9447127514736, -0.194, 0.97, 0.016, 192.0, 0.0, 0.0, 0.0, 0.0, 0.0, 0.0, 0.0, 0.0, 0.0, 1.6961090595940497E9, 0.0, 2023-09-30 16:24:19.594
149.0, 27264.8367005392, 18269.354792756414, -187500.02235174447, -187500.02235174447, 28123.344853323088, -187500.02235174447, 4340.105276120338, -1088.2170305510797, -0.194, 0.97, 0.016, 192.0, 0.0, 0.0, 0.0, 0.0, 0.0, 0.0, 0.0, 0.0, 0.0, 1.6961090595940871E9, 0.0, 2023-09-30 16:24:19.594
150.0, 27361.46329181949, 18299.73081347118, -187500.02235174447, -187500.02235174447, 28071.868785842515, -187500.02235174447, 4212.275649580437, -1350.872379645393, -0.194, 0.97, 0.016, 192.0, 0.0, 0.0, 0.0, 0.0, 0.0, 0.0, 0.0, 0.0, 0.0, 1.6961090595941215E9, 0.0, 2023-09-30 16:24:19.594
151.0, 27395.125018969182, 18308.313883342016, -187500.02235174447, -187500.02235174447, 28149.0940629356, -187500.02235174447, 4319.720485177098, -1125.1421123912469, -0.194, 0.97, 0.016, 192.0, 0.0, 0.0, 0.0, 0.0, 0.0, 0.0, 0.0, 0.0, 0.0, 1.6961090595941525E9, 0.0, 2023-09-30 16:24:19.594
152.0, 27346.97936141245, 18289.449011021738, -187500.02235174447, -187500.02235174447, 28224.620607450084, -187500.02235174447, 4471.26531258408, -808.6190591596436, -0.19, 0.968, 0.012, 192.0, 250.0, 16.0, 30.0, 64.0, 0.0, 96.0, 0.0, 0.0, 0.0, 1.69610905959419E9, 0.0, 2023-09-30 16:24:19.594
153.0, 27263.674409827523, 18263.8115601315, -187500.02235174447, -187500.02235174447, 28129.201010370376, -187500.02235174447, 4357.33847109538, -1045.5028468969879, -0.19, 0.968, 0.012, 192.0, 0.0, 0.0, 0.0, 0.0, 0.0, 0.0, 0.0, 0.0, 0.0, 1.696109059594226E9, 0.0, 2023-09-30 16:24:19.594
154.0, 27325.65579720209, 18293.76289770161, -187500.02235174447, -187500.02235174447, 28062.36929444901, -187500.02235174447, 4210.263992579459, -1358.4719727601973, -0.19, 0.968, 0.012, 192.0, 0.0, 0.0, 0.0, 0.0, 0.0, 0.0, 0.0, 0.0, 0.0, 1.6961090595942612E9, 0.0, 2023-09-30 16:24:19.594
155.0, 27384.440885119544, 18314.304150856038, -187500.02235174447, -187500.02235174447, 28135.61596102905, -187500.02235174447, 4298.598086666833, -1174.1818397261907, -0.19, 0.968, 0.012, 192.0, 0.0, 0.0, 0.0, 0.0, 0.0, 0.0, 0.0, 0.0, 0.0, 1.6961090595943003E9, 0.0, 2023-09-30 16:24:19.594
156.0, 27364.994867443427, 18305.162287373816, -187500.02235174447, -187500.02235174447, 28221.714880670894, -187500.02235174447, 4465.699728214709, -810.2954399937917, -0.19, 0.968, 0.012, 192.0, 0.0, 0.0, 0.0, 0.0, 0.0, 0.0, 0.0, 0.0, 0.0, 1.696109059594386E9, 0.0, 2023-09-30 16:24:19.594
157.0, 27259.91931675903, 18268.393667744836, -187500.02235174447, -187500.02235174447, 28170.261164934775, -187500.02235174447, 4425.064256794961, -904.7539120619193, -0.19, 0.968, 0.012, 192.0, 0.0, 0.0, 0.0, 0.0, 0.0, 0.0, 0.0, 0.0, 0.0, 1.696109059594434E9, 0.0, 2023-09-30 16:24:19.594
158.0, 27303.97460508044, 18288.890217410353, -187500.02235174447, -187500.02235174447, 28084.430466226397, -187500.02235174447, 4258.275539669459, -1251.6306342638295, -0.19, 0.968, 0.012, 192.0, 0.0, 0.0, 0.0, 0.0, 0.0, 0.0, 0.0, 0.0, 0.0, 1.6961090595944717E9, 0.0, 2023-09-30 16:24:19.594
159.0, 27385.67023106459, 18324.049511438552, -187500.02235174447, -187500.02235174447, 28129.9386179374, -187500.02235174447, 4289.2550574845145, -1158.0885837183696, -0.19, 0.968, 0.012, 192.0, 0.0, 0.0, 0.0, 0.0, 0.0, 0.0, 0.0, 0.0, 0.0, 1.6961090595945036E9, 0.0, 2023-09-30 16:24:19.594
160.0, 27361.642105775132, 18317.34398810196, -187500.02235174447, -187500.02235174447, 28217.91508411349, -187500.02235174447, 4450.232321051636, -785.8202798152304, -0.19, 0.968, 0.012, 192.0, 0.0, 0.0, 0.0, 0.0, 0.0, 0.0, 0.0, 0.0, 0.0, 1.696109059594544E9, 0.0, 2023-09-30 16:24:19.594
161.0, 27271.139892475596, 18280.731830684166, -187500.02235174447, -187500.02235174447, 28192.098819267612, -187500.02235174447, 4452.534550730533, -769.3470441516691, -0.19, 0.968, 0.012, 192.0, 0.0, 0.0, 0.0, 0.0, 0.0, 0.0, 0.0, 0.0, 0.0, 1.6961090595945756E9, 0.0, 2023-09-30 16:24:19.594
162.0, 27286.137913005106, 18282.51997024059, -187500.02235174447, -187500.02235174447, 28079.98246907979, -187500.02235174447, 4267.1268304737605, -1155.9651679951153, -0.182, 0.968, 0.012, 192.0, 250.0, 80.0, 30.0, 64.0, 0.0, 96.0, 0.0, 0.0, 0.0, 1.696109059594606E9, 0.0, 2023-09-30 16:24:19.594
163.0, 27390.699373567033, 18308.403290319835, -187500.02235174447, -187500.02235174447, 28110.62671072802, -187500.02235174447, 4274.3464439328245, -1140.8106852544172, -0.182, 0.968, 0.012, 192.0, 0.0, 0.0, 0.0, 0.0, 0.0, 0.0, 0.0, 0.0, 0.0, 1.6961090595946417E9, 0.0, 2023-09-30 16:24:19.594
164.0, 27388.08421946576, 18308.783269975578, -187500.02235174447, -187500.02235174447, 28205.755735129802, -187500.02235174447, 4441.090457569416, -779.6511983455656, -0.182, 0.968, 0.012, 192.0, 0.0, 0.0, 0.0, 0.0, 0.0, 0.0, 0.0, 0.0, 0.0, 1.6961090595946848E9, 0.0, 2023-09-30 16:24:19.594
165.0, 27302.387631224112, 18278.854284149922, -187500.02235174447, -187500.02235174447, 28207.29800549722, -187500.02235174447, 4489.370225592879, -674.3297784721588, -0.182, 0.968, 0.012, 192.0, 0.0, 0.0, 0.0, 0.0, 0.0, 0.0, 0.0, 0.0, 0.0, 1.6961090595947227E9, 0.0, 2023-09-30 16:24:19.594
166.0, 27269.038828496796, 18280.910644639807, -187500.02235174447, -187500.02235174447, 28090.1301610625, -187500.02235174447, 4307.203508282127, -1068.59219891932, -0.182, 0.968, 0.012, 192.0, 0.0, 0.0, 0.0, 0.0, 0.0, 0.0, 0.0, 0.0, 0.0, 1.6961090595947614E9, 0.0, 2023-09-30 16:24:19.594
167.0, 27378.964707727995, 18324.921229472307, -187500.02235174447, -187500.02235174447, 28060.31293395912, -187500.02235174447, 4217.707123483076, -1211.039866332992, -0.182, 0.968, 0.012, 192.0, 0.0, 0.0, 0.0, 0.0, 0.0, 0.0, 0.0, 0.0, 0.0, 1.696109059594836E9, 0.0, 2023-09-30 16:24:19.594
168.0, 27387.90540551012, 18319.109775913927, -187500.02235174447, -187500.02235174447, 28159.442920618407, -187500.02235174447, 4364.4463258321675, -885.4196531080787, -0.182, 0.968, 0.012, 192.0, 0.0, 0.0, 0.0, 0.0, 0.0, 0.0, 0.0, 0.0, 0.0, 1.6961090595948706E9, 0.0, 2023-09-30 16:24:19.594
169.0, 27321.45366924449, 18284.643385963846, -187500.02235174447, -187500.02235174447, 28225.53702897275, -187500.02235174447, 4495.248734384624, -626.5864523156229, -0.182, 0.968, 0.012, 192.0, 0.0, 0.0, 0.0, 0.0, 0.0, 0.0, 0.0, 0.0, 0.0, 1.6961090595949028E9, 0.0, 2023-09-30 16:24:19.594
170.0, 27259.338171403193, 18258.46949320668, -187500.02235174447, -187500.02235174447, 28127.770498725236, -187500.02235174447, 4357.427878073201, -938.3932874671564, -0.182, 0.968, 0.012, 192.0, 0.0, 0.0, 0.0, 0.0, 0.0, 0.0, 0.0, 0.0, 0.0, 1.696109059594938E9, 0.0, 2023-09-30 16:24:19.594
171.0, 27360.904498208107, 18297.763859959112, -187500.02235174447, -187500.02235174447, 28090.957175607346, -187500.02235174447, 4265.964539762084, -1120.4482460556324, -0.182, 0.968, 0.012, 192.0, 0.0, 0.0, 0.0, 0.0, 0.0, 0.0, 0.0, 0.0, 0.0, 1.696109059594972E9, 0.0, 2023-09-30 16:24:19.594
172.0, 27393.828617790776, 18314.885296211876, -187500.02235174447, -187500.02235174447, 28174.418589403464, -187500.02235174447, 4393.794166301986, -844.8735886661517, -0.188, 0.974, 0.014, 192.0, 250.0, 32.0, 30.0, 112.0, 0.0, 112.0, 0.0, 0.0, 0.0, 1.696109059595006E9, 0.0, 2023-09-30 16:24:19.595
173.0, 27343.872468933165, 18299.86492393791, -187500.02235174447, -187500.02235174447, 28227.995720862833, -187500.02235174447, 4517.823996284485, -566.8625911310424, -0.188, 0.974, 0.014, 192.0, 0.0, 0.0, 0.0, 0.0, 0.0, 0.0, 0.0, 0.0, 0.0, 1.6961090595950468E9, 0.0, 2023-09-30 16:24:19.595
174.0, 27274.604412866167, 18275.345060270436, -187500.02235174447, -187500.02235174447, 28136.890010463, -187500.02235174447, 4398.443329148689, -838.7492106853975, -0.188, 0.974, 0.014, 192.0, 0.0, 0.0, 0.0, 0.0, 0.0, 0.0, 0.0, 0.0, 0.0, 1.6961090595950773E9, 0.0, 2023-09-30 16:24:19.595
175.0, 27368.280573878357, 18308.403290319835, -187500.02235174447, -187500.02235174447, 28092.924129119412, -187500.02235174447, 4286.75166210552, -1098.878812656261, -0.188, 0.974, 0.014, 192.0, 0.0, 0.0, 0.0, 0.0, 0.0, 0.0, 0.0, 0.0, 0.0, 1.696109059595111E9, 0.0, 2023-09-30 16:24:19.595
176.0, 27407.954920286527, 18332.76669177612, -187500.02235174447, -187500.02235174447, 28147.127109423534, -187500.02235174447, 4361.205322886148, -921.3389064477572, -0.188, 0.974, 0.014, 192.0, 0.0, 0.0, 0.0, 0.0, 0.0, 0.0, 0.0, 0.0, 0.0, 1.6961090595951376E9, 0.0, 2023-09-30 16:24:19.595
177.0, 27370.739265768443, 18318.99801719165, -187500.02235174447, -187500.02235174447, 28206.918025841478, -187500.02235174447, 4488.2973418590245, -623.7477807697989, -0.188, 0.974, 0.014, 192.0, 0.0, 0.0, 0.0, 0.0, 0.0, 0.0, 0.0, 0.0, 0.0, 1.6961090595951755E9, 0.0, 2023-09-30 16:24:19.595
178.0, 27277.264270456348, 18284.88925515285, -187500.02235174447, -187500.02235174447, 28131.302074349176, -187500.02235174447, 4405.1265007408265, -807.6579341480654, -0.188, 0.974, 0.014, 192.0, 0.0, 0.0, 0.0, 0.0, 0.0, 0.0, 0.0, 0.0, 0.0, 1.6961090595952559E9, 0.0, 2023-09-30 16:24:19.595
179.0, 27342.84428868822, 18306.548095530045, -187500.02235174447, -187500.02235174447, 28064.380951449988, -187500.02235174447, 4263.550551360911, -1118.9059756882164, -0.188, 0.974, 0.014, 192.0, 0.0, 0.0, 0.0, 0.0, 0.0, 0.0, 0.0, 0.0, 0.0, 1.6961090595952826E9, 0.0, 2023-09-30 16:24:19.595
180.0, 27405.00449001843, 18331.76086327563, -187500.02235174447, -187500.02235174447, 28120.684995732903, -187500.02235174447, 4328.437665514668, -972.6361599726869, -0.188, 0.974, 0.014, 192.0, 0.0, 0.0, 0.0, 0.0, 0.0, 0.0, 0.0, 0.0, 0.0, 1.6961090595953236E9, 0.0, 2023-09-30 16:24:19.595
181.0, 27372.37094311368, 18330.218592908215, -187500.02235174447, -187500.02235174447, 28187.069676765168, -187500.02235174447, 4467.018481137572, -641.4280106339468, -0.188, 0.974, 0.014, 192.0, 0.0, 0.0, 0.0, 0.0, 0.0, 0.0, 0.0, 0.0, 0.0, 1.69610905959536E9, 0.0, 2023-09-30 16:24:19.595
182.0, 27282.047543769782, 18288.04085112105, -187500.02235174447, -187500.02235174447, 28149.65285654698, -187500.02235174447, 4445.06906808246, -705.5998689651334, -0.188, 0.976, 0.012, 192.0, 250.0, 32.0, 30.0, 128.0, 0.0, 96.0, 0.0, 0.0, 0.0, 1.6961090595953977E9, 0.0, 2023-09-30 16:24:19.595
183.0, 27316.089250575216, 18297.339176814457, -187500.02235174447, -187500.02235174447, 28068.47132068531, -187500.02235174447, 4290.149127262727, -1071.1850012761356, -0.188, 0.976, 0.012, 192.0, 0.0, 0.0, 0.0, 0.0, 0.0, 0.0, 0.0, 0.0, 0.0, 1.696109059595432E9, 0.0, 2023-09-30 16:24:19.595
184.0, 27408.133734242172, 18327.737549273676, -187500.02235174447, -187500.02235174447, 28119.746222465783, -187500.02235174447, 4329.71171494862, -1013.8974802371837, -0.188, 0.976, 0.012, 192.0, 0.0, 0.0, 0.0, 0.0, 0.0, 0.0, 0.0, 0.0, 0.0, 1.696109059595464E9, 0.0, 2023-09-30 16:24:19.595
185.0, 27396.4661236365, 18323.423662593803, -187500.02235174447, -187500.02235174447, 28211.455429965907, -187500.02235174447, 4502.915382732795, -657.4318596639466, -0.188, 0.976, 0.012, 192.0, 0.0, 0.0, 0.0, 0.0, 0.0, 0.0, 0.0, 0.0, 0.0, 1.6961090595955057E9, 0.0, 2023-09-30 16:24:19.595
186.0, 27300.55478817878, 18295.99807214714, -187500.02235174447, -187500.02235174447, 28192.165874500977, -187500.02235174447, 4524.507167876622, -624.8877197370196, -0.188, 0.976, 0.012, 192.0, 0.0, 0.0, 0.0, 0.0, 0.0, 0.0, 0.0, 0.0, 0.0, 1.6961090595955403E9, 0.0, 2023-09-30 16:24:19.595
187.0, 27289.982413051417, 18302.48007803918, -187500.02235174447, -187500.02235174447, 28075.445064955362, -187500.02235174447, 4327.968278881107, -1038.3279369268344, -0.188, 0.976, 0.012, 192.0, 0.0, 0.0, 0.0, 0.0, 0.0, 0.0, 0.0, 0.0, 0.0, 1.6961090595955718E9, 0.0, 2023-09-30 16:24:19.595
188.0, 27392.129885212173, 18331.492642342168, -187500.02235174447, -187500.02235174447, 28097.617995455028, -187500.02235174447, 4312.836147884864, -1067.4075564631887, -0.188, 0.976, 0.012, 192.0, 0.0, 0.0, 0.0, 0.0, 0.0, 0.0, 0.0, 0.0, 0.0, 1.696109059595596E9, 0.0, 2023-09-30 16:24:19.595
189.0, 27389.55943459981, 18324.094214927463, -187500.02235174447, -187500.02235174447, 28199.318432726675, -187500.02235174447, 4483.245847612125, -706.8515666546306, -0.188, 0.976, 0.012, 192.0, 0.0, 0.0, 0.0, 0.0, 0.0, 0.0, 0.0, 0.0, 0.0, 1.696109059595628E9, 0.0, 2023-09-30 16:24:19.595
190.0, 27313.45174472949, 18291.6171302339, -187500.02235174447, -187500.02235174447, 28218.026842835767, -187500.02235174447, 4561.186380527781, -547.4389251993806, -0.188, 0.976, 0.012, 192.0, 0.0, 0.0, 0.0, 0.0, 0.0, 0.0, 0.0, 0.0, 0.0, 1.6961090595956595E9, 0.0, 2023-09-30 16:24:19.595
191.0, 27267.563613362745, 18294.545208757547, -187500.02235174447, -187500.02235174447, 28077.546128934162, -187500.02235174447, 4356.198532128159, -961.5049912339439, -0.188, 0.976, 0.012, 192.0, 0.0, 0.0, 0.0, 0.0, 0.0, 0.0, 0.0, 0.0, 0.0, 1.6961090595956905E9, 0.0, 2023-09-30 16:24:19.595
192.0, 27377.08716119375, 18335.20303192175, -187500.02235174447, -187500.02235174447, 28070.84060559757, -187500.02235174447, 4290.640865640744, -1102.4997952580209, -0.188, 0.976, 0.012, 192.0, 0.0, 0.0, 0.0, 0.0, 0.0, 0.0, 0.0, 0.0, 0.0, 1.696109059595732E9, 0.0, 2023-09-30 16:24:19.595
193.0, 27394.253300935427, 18337.840537767475, -187500.02235174447, -187500.02235174447, 28159.08529270712, -187500.02235174447, 4429.4451987082, -807.993210314895, -0.188, 0.974, 0.01, 192.0, 250.0, 32.0, 30.0, 112.0, 0.0, 80.0, 0.0, 0.0, 0.0, 1.6961090595957747E9, 0.0, 2023-09-30 16:24:19.595
194.0, 27337.54692525231, 18310.23613336517, -187500.02235174447, -187500.02235174447, 28213.40003173352, -187500.02235174447, 4548.915272821817, -563.9568643518525, -0.188, 0.974, 0.01, 192.0, 0.0, 0.0, 0.0, 0.0, 0.0, 0.0, 0.0, 0.0, 0.0, 1.6961090595958257E9, 0.0, 2023-09-30 16:24:19.595
195.0, 27271.497520386878, 18285.425697019782, -187500.02235174447, -187500.02235174447, 28111.61018748405, -187500.02235174447, 4407.384026930813, -877.5965425487212, -0.188, 0.974, 0.01, 192.0, 0.0, 0.0, 0.0, 0.0, 0.0, 0.0, 0.0, 0.0, 0.0, 1.6961090595958428E9, 0.0, 2023-09-30 16:24:19.595
196.0, 27376.394257115637, 18319.892086969863, -187500.02235174447, -187500.02235174447, 28078.75312313475, -187500.02235174447, 4309.081054816372, -1084.5960479493199, -0.188, 0.974, 0.01, 192.0, 0.0, 0.0, 0.0, 0.0, 0.0, 0.0, 0.0, 0.0, 0.0, 1.696109059595858E9, 0.0, 2023-09-30 16:24:19.595
197.0, 27398.746001570944, 18334.44307261027, -187500.02235174447, -187500.02235174447, 28151.440996103407, -187500.02235174447, 4412.569631644444, -844.7171264549645, -0.188, 0.974, 0.01, 192.0, 0.0, 0.0, 0.0, 0.0, 0.0, 0.0, 0.0, 0.0, 0.0, 1.6961090595958707E9, 0.0, 2023-09-30 16:24:19.595
198.0, 27351.18148937005, 18313.588895033467, -187500.02235174447, -187500.02235174447, 28236.601142478128, -187500.02235174447, 4571.624645188409, -524.5730906216014, -0.188, 0.974, 0.01, 192.0, 0.0, 0.0, 0.0, 0.0, 0.0, 0.0, 0.0, 0.0, 0.0, 1.6961090595958855E9, 0.0, 2023-09-30 16:24:19.595
199.0, 27266.289563928793, 18283.928130141274, -187500.02235174447, -187500.02235174447, 28156.201917672388, -187500.02235174447, 4469.253655583102, -765.7484132943647, -0.188, 0.974, 0.01, 192.0, 0.0, 0.0, 0.0, 0.0, 0.0, 0.0, 0.0, 0.0, 0.0, 1.696109059595898E9, 0.0, 2023-09-30 16:24:19.595
200.0, 27344.69948347801, 18316.427566579292, -187500.02235174447, -187500.02235174447, 28095.628690198504, -187500.02235174447, 4334.360877795324, -1064.367719217267, -0.188, 0.974, 0.01, 192.0, 0.0, 0.0, 0.0, 0.0, 0.0, 0.0, 0.0, 0.0, 0.0, 1.6961090595959103E9, 0.0, 2023-09-30 16:24:19.595
201.0, 27394.253300935427, 18337.77348253411, -187500.02235174447, -187500.02235174447, 28154.19026067141, -187500.02235174447, 4405.193555974192, -903.2563451834137, -0.188, 0.974, 0.01, 192.0, 0.0, 0.0, 0.0, 0.0, 0.0, 0.0, 0.0, 0.0, 0.0, 1.6961090595959215E9, 0.0, 2023-09-30 16:24:19.595
202.0, 27368.74996051192, 18323.133089915882, -187500.02235174447, -187500.02235174447, 28247.44173853895, -187500.02235174447, 4575.782069657096, -546.3213379766153, -0.188, 0.974, 0.01, 192.0, 0.0, 0.0, 0.0, 0.0, 0.0, 0.0, 0.0, 0.0, 0.0, 1.6961090595959337E9, 0.0, 2023-09-30 16:24:19.595
203.0, 27275.45377915547, 18280.932996384265, -187500.02235174447, -187500.02235174447, 28200.61483390508, -187500.02235174447, 4539.348726194946, -660.516400398779, -0.184, 0.978, 0.014, 192.0, 250.0, 64.0, 30.0, 144.0, 0.0, 112.0, 0.0, 0.0, 0.0, 1.696109059595945E9, 0.0, 2023-09-30 16:24:19.595
204.0, 27326.25929430238, 18304.91641818481, -187500.02235174447, -187500.02235174447, 28107.072783359625, -187500.02235174447, 4363.9769391986065, -1032.9635182575605, -0.184, 0.978, 0.014, 192.0, 0.0, 0.0, 0.0, 0.0, 0.0, 0.0, 0.0, 0.0, 0.0, 1.696109059595956E9, 0.0, 2023-09-30 16:24:19.595
205.0, 27413.408745933622, 18327.603438806946, -187500.02235174447, -187500.02235174447, 28168.51772886726, -187500.02235174447, 4424.125483527838, -918.4555314130225, -0.184, 0.978, 0.014, 192.0, 0.0, 0.0, 0.0, 0.0, 0.0, 0.0, 0.0, 0.0, 0.0, 1.6961090595959673E9, 0.0, 2023-09-30 16:24:19.595
206.0, 27374.27084139238, 18324.13891841637, -187500.02235174447, -187500.02235174447, 28249.051064139734, -187500.02235174447, 4579.268941792124, -572.7410999227882, -0.184, 0.978, 0.014, 192.0, 0.0, 0.0, 0.0, 0.0, 0.0, 0.0, 0.0, 0.0, 0.0, 1.6961090595959785E9, 0.0, 2023-09-30 16:24:19.595
207.0, 27277.73365708991, 18297.80856344802, -187500.02235174447, -187500.02235174447, 28212.17068578848, -187500.02235174447, 4564.76265964063, -610.1802718854275, -0.184, 0.978, 0.014, 192.0, 0.0, 0.0, 0.0, 0.0, 0.0, 0.0, 0.0, 0.0, 0.0, 1.696109059595992E9, 0.0, 2023-09-30 16:24:19.595
208.0, 27302.45468645748, 18312.85128746644, -187500.02235174447, -187500.02235174447, 28107.34100429309, -187500.02235174447, 4380.0031399730615, -1006.7449220114854, -0.184, 0.978, 0.014, 192.0, 0.0, 0.0, 0.0, 0.0, 0.0, 0.0, 0.0, 0.0, 0.0, 1.696109059596004E9, 0.0, 2023-09-30 16:24:19.596
209.0, 27393.47098987949, 18340.18747093528, -187500.02235174447, -187500.02235174447, 28141.449766331883, -187500.02235174447, 4386.038110975995, -987.9024014356615, -0.184, 0.978, 0.014, 192.0, 0.0, 0.0, 0.0, 0.0, 0.0, 0.0, 0.0, 0.0, 0.0, 1.696109059596016E9, 0.0, 2023-09-30 16:24:19.596
210.0, 27385.960803742506, 18341.461520369234, -187500.02235174447, -187500.02235174447, 28244.58071524867, -187500.02235174447, 4563.33214799549, -614.3600480985699, -0.184, 0.978, 0.014, 192.0, 0.0, 0.0, 0.0, 0.0, 0.0, 0.0, 0.0, 0.0, 0.0, 1.6961090595960288E9, 0.0, 2023-09-30 16:24:19.596
211.0, 27292.508160174868, 18317.321636357505, -187500.02235174447, -187500.02235174447, 28211.231912521354, -187500.02235174447, 4569.233008531691, -566.393204497481, -0.184, 0.978, 0.014, 192.0, 0.0, 0.0, 0.0, 0.0, 0.0, 0.0, 0.0, 0.0, 0.0, 1.6961090595960433E9, 0.0, 2023-09-30 16:24:19.596
212.0, 27278.694782101487, 18309.878505453886, -187500.02235174447, -187500.02235174447, 28094.622861698015, -187500.02235174447, 4377.991482972084, -967.2270378145025, -0.184, 0.978, 0.014, 192.0, 0.0, 0.0, 0.0, 0.0, 0.0, 0.0, 0.0, 0.0, 0.0, 1.6961090595960567E9, 0.0, 2023-09-30 16:24:19.596
213.0, 27389.33591715526, 18340.500395357656, -187500.02235174447, -187500.02235174447, 28109.12914384951, -187500.02235174447, 4350.632947758788, -1024.3133931533569, -0.182, 0.98, 0.014, 192.0, 250.0, 80.0, 30.0, 160.0, 0.0, 112.0, 0.0, 0.0, 0.0, 1.6961090595960708E9, 0.0, 2023-09-30 16:24:19.596
214.0, 27389.80530378882, 18348.994058250675, -187500.02235174447, -187500.02235174447, 28193.43992393493, -187500.02235174447, 4484.050510412516, -710.8748806565858, -0.182, 0.98, 0.014, 192.0, 0.0, 0.0, 0.0, 0.0, 0.0, 0.0, 0.0, 0.0, 0.0, 1.6961090595960836E9, 0.0, 2023-09-30 16:24:19.596
215.0, 27321.274855288848, 18313.030101422086, -187500.02235174447, -187500.02235174447, 28224.330034772163, -187500.02235174447, 4568.674214920308, -524.2378144547719, -0.182, 0.98, 0.014, 192.0, 0.0, 0.0, 0.0, 0.0, 0.0, 0.0, 0.0, 0.0, 0.0, 1.696109059596096E9, 0.0, 2023-09-30 16:24:19.596
216.0, 27283.142779248094, 18284.553978986023, -187500.02235174447, -187500.02235174447, 28139.907495964468, -187500.02235174447, 4437.78239939003, -841.0067368753836, -0.182, 0.98, 0.014, 192.0, 0.0, 0.0, 0.0, 0.0, 0.0, 0.0, 0.0, 0.0, 0.0, 1.696109059596107E9, 0.0, 2023-09-30 16:24:19.596
217.0, 27378.540024583344, 18332.274953398104, -187500.02235174447, -187500.02235174447, 28111.006690383758, -187500.02235174447, 4346.43081980119, -1013.5175005814434, -0.182, 0.98, 0.014, 192.0, 0.0, 0.0, 0.0, 0.0, 0.0, 0.0, 0.0, 0.0, 0.0, 1.6961090595961196E9, 0.0, 2023-09-30 16:24:19.596
218.0, 27391.347574156236, 18339.651029068355, -187500.02235174447, -187500.02235174447, 28190.489493666828, -187500.02235174447, 4467.97960614915, -731.5949477666554, -0.182, 0.98, 0.014, 192.0, 0.0, 0.0, 0.0, 0.0, 0.0, 0.0, 0.0, 0.0, 0.0, 1.6961090595961313E9, 0.0, 2023-09-30 16:24:19.596
219.0, 27339.17860259755, 18320.696749770254, -187500.02235174447, -187500.02235174447, 28241.853802425125, -187500.02235174447, 4591.182421586803, -457.83078167805456, -0.182, 0.98, 0.014, 192.0, 0.0, 0.0, 0.0, 0.0, 0.0, 0.0, 0.0, 0.0, 0.0, 1.6961090595961432E9, 0.0, 2023-09-30 16:24:19.596
220.0, 27270.15641571956, 18293.80760119052, -187500.02235174447, -187500.02235174447, 28135.32538835113, -187500.02235174447, 4448.31007102848, -757.4782678459011, -0.182, 0.98, 0.014, 192.0, 0.0, 0.0, 0.0, 0.0, 0.0, 0.0, 0.0, 0.0, 0.0, 1.6961090595961547E9, 0.0, 2023-09-30 16:24:19.596
221.0, 27367.207690144503, 18330.017427208117, -187500.02235174447, -187500.02235174447, 28080.451855713352, -187500.02235174447, 4318.446435743146, -1020.1336169402143, -0.182, 0.98, 0.014, 192.0, 0.0, 0.0, 0.0, 0.0, 0.0, 0.0, 0.0, 0.0, 0.0, 1.696109059596166E9, 0.0, 2023-09-30 16:24:19.596
222.0, 27414.727498856486, 18348.01058149464, -187500.02235174447, -187500.02235174447, 28179.380676672543, -187500.02235174447, 4451.461666996678, -761.3898231255798, -0.182, 0.98, 0.014, 192.0, 0.0, 0.0, 0.0, 0.0, 0.0, 0.0, 0.0, 0.0, 0.0, 1.696109059596177E9, 0.0, 2023-09-30 16:24:19.596
223.0, 27366.827710488764, 18344.993095993173, -187500.02235174447, -187500.02235174447, 28250.39216880705, -187500.02235174447, 4600.883078680406, -434.67437442235644, -0.186, 0.978, 0.016, 192.0, 250.0, 48.0, 30.0, 144.0, 0.0, 128.0, 0.0, 0.0, 0.0, 1.696109059596188E9, 0.0, 2023-09-30 16:24:19.596
224.0, 27281.22052922494, 18306.212819363216, -187500.02235174447, -187500.02235174447, 28162.840385775613, -187500.02235174447, 4498.601496052921, -655.1519817295053, -0.186, 0.978, 0.016, 192.0, 0.0, 0.0, 0.0, 0.0, 0.0, 0.0, 0.0, 0.0, 0.0, 1.6961090595961998E9, 0.0, 2023-09-30 16:24:19.596
225.0, 27357.551736539812, 18326.61996205091, -187500.02235174447, -187500.02235174447, 28100.791943167682, -187500.02235174447, 4354.8797792052965, -975.0277966294046, -0.186, 0.978, 0.016, 192.0, 0.0, 0.0, 0.0, 0.0, 0.0, 0.0, 0.0, 0.0, 0.0, 1.6961090595962114E9, 0.0, 2023-09-30 16:24:19.596
226.0, 27421.500077426444, 18344.05432272605, -187500.02235174447, -187500.02235174447, 28166.394313144006, -187500.02235174447, 4428.707591141176, -820.8231116322413, -0.186, 0.978, 0.016, 192.0, 0.0, 0.0, 0.0, 0.0, 0.0, 0.0, 0.0, 0.0, 0.0, 1.696109059596223E9, 0.0, 2023-09-30 16:24:19.596
227.0, 27383.837388019252, 18330.687979541777, -187500.02235174447, -187500.02235174447, 28259.109349144623, -187500.02235174447, 4605.308724082556, -453.38278453144846, -0.186, 0.978, 0.016, 192.0, 0.0, 0.0, 0.0, 0.0, 0.0, 0.0, 0.0, 0.0, 0.0, 1.6961090595962412E9, 0.0, 2023-09-30 16:24:19.596
228.0, 27270.49169188639, 18301.831877449975, -187500.02235174447, -187500.02235174447, 28194.848083835615, -187500.02235174447, 4550.792819356063, -564.7168236633329, -0.186, 0.978, 0.016, 192.0, 0.0, 0.0, 0.0, 0.0, 0.0, 0.0, 0.0, 0.0, 0.0, 1.69610905959626E9, 0.0, 2023-09-30 16:24:19.596
229.0, 27314.36816625216, 18311.130203143384, -187500.02235174447, -187500.02235174447, 28094.779323909203, -187500.02235174447, 4369.00608170105, -946.2163980265138, -0.186, 0.978, 0.016, 192.0, 0.0, 0.0, 0.0, 0.0, 0.0, 0.0, 0.0, 0.0, 0.0, 1.6961090595962772E9, 0.0, 2023-09-30 16:24:19.596
230.0, 27414.548684900845, 18339.226345923704, -187500.02235174447, -187500.02235174447, 28129.782155726214, -187500.02235174447, 4393.369483157335, -881.3739873616681, -0.186, 0.978, 0.016, 192.0, 0.0, 0.0, 0.0, 0.0, 0.0, 0.0, 0.0, 0.0, 0.0, 1.6961090595962892E9, 0.0, 2023-09-30 16:24:19.596
231.0, 27375.99192571544, 18341.595630835967, -187500.02235174447, -187500.02235174447, 28214.562322445196, -187500.02235174447, 4545.651918131342, -537.8053233391432, -0.186, 0.978, 0.016, 192.0, 0.0, 0.0, 0.0, 0.0, 0.0, 0.0, 0.0, 0.0, 0.0, 1.6961090595963023E9, 0.0, 2023-09-30 16:24:19.596
232.0, 27291.74820086339, 18307.263351352616, -187500.02235174447, -187500.02235174447, 28187.136731998533, -187500.02235174447, 4540.265147717613, -538.4088204394366, -0.186, 0.978, 0.016, 192.0, 0.0, 0.0, 0.0, 0.0, 0.0, 0.0, 0.0, 0.0, 0.0, 1.696109059596316E9, 0.0, 2023-09-30 16:24:19.596
233.0, 27310.41190748357, 18301.250732094137, -187500.02235174447, -187500.02235174447, 28110.090268861088, -187500.02235174447, 4392.520116868033, -891.5440310888328, -0.186, 0.978, 0.016, 192.0, 0.0, 0.0, 0.0, 0.0, 0.0, 0.0, 0.0, 0.0, 0.0, 1.6961090595963347E9, 0.0, 2023-09-30 16:24:19.596
234.0, 27399.79653356034, 18338.667552312323, -187500.02235174447, -187500.02235174447, 28131.771460982738, -187500.02235174447, 4387.2227534321255, -898.4283683810673, -0.188, 0.978, 0.01, 192.0, 250.0, 32.0, 30.0, 144.0, 0.0, 80.0, 0.0, 0.0, 0.0, 1.6961090595963523E9, 0.0, 2023-09-30 16:24:19.596
235.0, 27383.904443252617, 18343.383770392393, -187500.02235174447, -187500.02235174447, 28195.764505358282, -187500.02235174447, 4504.837632755952, -595.517527522746, -0.188, 0.978, 0.01, 192.0, 0.0, 0.0, 0.0, 0.0, 0.0, 0.0, 0.0, 0.0, 0.0, 1.696109059596372E9, 0.0, 2023-09-30 16:24:19.596
236.0, 27298.587834666712, 18309.900857198343, -187500.02235174447, -187500.02235174447, 28205.35340372961, -187500.02235174447, 4558.772392126607, -474.63929350844546, -0.188, 0.978, 0.01, 192.0, 0.0, 0.0, 0.0, 0.0, 0.0, 0.0, 0.0, 0.0, 0.0, 1.696109059596388E9, 0.0, 2023-09-30 16:24:19.596
237.0, 27266.334267417704, 18299.395537304346, -187500.02235174447, -187500.02235174447, 28101.12721933451, -187500.02235174447, 4395.358788413857, -841.1184955976601, -0.188, 0.978, 0.01, 192.0, 0.0, 0.0, 0.0, 0.0, 0.0, 0.0, 0.0, 0.0, 0.0, 1.6961090595964074E9, 0.0, 2023-09-30 16:24:19.596
238.0, 27380.6634403066, 18337.035874967085, -187500.02235174447, -187500.02235174447, 28102.401268768463, -187500.02235174447, 4356.332642594891, -932.8947583311509, -0.188, 0.978, 0.01, 192.0, 0.0, 0.0, 0.0, 0.0, 0.0, 0.0, 0.0, 0.0, 0.0, 1.69610905959643E9, 0.0, 2023-09-30 16:24:19.596
239.0, 27394.052135235328, 18353.129130974907, -187500.02235174447, -187500.02235174447, 28199.38548796004, -187500.02235174447, 4511.386693881356, -604.972315427341, -0.188, 0.978, 0.01, 192.0, 0.0, 0.0, 0.0, 0.0, 0.0, 0.0, 0.0, 0.0, 0.0, 1.696109059596448E9, 0.0, 2023-09-30 16:24:19.596
240.0, 27323.286512289826, 18326.552906817546, -187500.02235174447, -187500.02235174447, 28236.914066900503, -187500.02235174447, 4607.566250272543, -387.28867617710546, -0.188, 0.978, 0.01, 192.0, 0.0, 0.0, 0.0, 0.0, 0.0, 0.0, 0.0, 0.0, 0.0, 1.6961090595964673E9, 0.0, 2023-09-30 16:24:19.596
241.0, 27261.05925572625, 18303.463554795213, -187500.02235174447, -187500.02235174447, 28126.85407720257, -187500.02235174447, 4452.109867585882, -725.1799971079823, -0.188, 0.978, 0.01, 192.0, 0.0, 0.0, 0.0, 0.0, 0.0, 0.0, 0.0, 0.0, 0.0, 1.6961090595964868E9, 0.0, 2023-09-30 16:24:19.596
242.0, 27369.80049250132, 18344.76957854862, -187500.02235174447, -187500.02235174447, 28106.290472303688, -187500.02235174447, 4366.167410155226, -913.7393133329527, -0.188, 0.978, 0.01, 192.0, 0.0, 0.0, 0.0, 0.0, 0.0, 0.0, 0.0, 0.0, 0.0, 1.6961090600720627E9, 0.0, 2023-09-30 16:24:20.072
243.0, 27396.108495725217, 18360.572261878522, -187500.02235174447, -187500.02235174447, 28173.27865043624, -187500.02235174447, 4463.93394040274, -679.1354035300498, -0.188, 0.978, 0.01, 192.0, 0.0, 0.0, 0.0, 0.0, 0.0, 0.0, 0.0, 0.0, 0.0, 1.696109060072337E9, 0.0, 2023-09-30 16:24:20.072
244.0, 27351.51676553688, 18338.600497078955, -187500.02235174447, -187500.02235174447, 28230.767337175294, -187500.02235174447, 4591.160069842347, -404.92420255234276, -0.186, 0.976, 0.014, 192.0, 250.0, 48.0, 30.0, 128.0, 0.0, 112.0, 0.0, 0.0, 0.0, 1.6961090600723524E9, 0.0, 2023-09-30 16:24:20.072
245.0, 27274.62676461062, 18303.06122339502, -187500.02235174447, -187500.02235174447, 28140.86862097605, -187500.02235174447, 4479.714271988186, -665.2326184788488, -0.186, 0.976, 0.014, 192.0, 0.0, 0.0, 0.0, 0.0, 0.0, 0.0, 0.0, 0.0, 0.0, 1.6961090600723655E9, 0.0, 2023-09-30 16:24:20.072
246.0, 27364.592536043234, 18327.335217873482, -187500.02235174447, -187500.02235174447, 28092.11946631902, -187500.02235174447, 4358.970148440618, -935.1299327766816, -0.186, 0.976, 0.014, 192.0, 0.0, 0.0, 0.0, 0.0, 0.0, 0.0, 0.0, 0.0, 0.0, 1.6961090600723784E9, 0.0, 2023-09-30 16:24:20.072
247.0, 27405.406821418623, 18346.62477333841, -187500.02235174447, -187500.02235174447, 28181.369981929063, -187500.02235174447, 4471.332367817446, -712.8641859131081, -0.186, 0.976, 0.014, 192.0, 0.0, 0.0, 0.0, 0.0, 0.0, 0.0, 0.0, 0.0, 0.0, 1.6961090600723903E9, 0.0, 2023-09-30 16:24:20.072
248.0, 27348.90161143561, 18348.63643033939, -187500.02235174447, -187500.02235174447, 28248.000532150334, -187500.02235174447, 4606.828642705517, -397.97281002674225, -0.186, 0.976, 0.014, 192.0, 0.0, 0.0, 0.0, 0.0, 0.0, 0.0, 0.0, 0.0, 0.0, 1.6961090600724013E9, 0.0, 2023-09-30 16:24:20.072
249.0, 27257.035941724294, 18317.299284613047, -187500.02235174447, -187500.02235174447, 28163.130958453534, -187500.02235174447, 4507.139862434848, -593.6846844774109, -0.186, 0.976, 0.014, 192.0, 0.0, 0.0, 0.0, 0.0, 0.0, 0.0, 0.0, 0.0, 0.0, 1.6961090600724125E9, 0.0, 2023-09-30 16:24:20.072
250.0, 27328.449765259, 18333.705465043244, -187500.02235174447, -187500.02235174447, 28085.12337030451, -187500.02235174447, 4348.218959357615, -937.923900833595, -0.186, 0.976, 0.014, 192.0, 0.0, 0.0, 0.0, 0.0, 0.0, 0.0, 0.0, 0.0, 0.0, 1.696109060072424E9, 0.0, 2023-09-30 16:24:20.072
251.0, 27394.432114891068, 18352.257412941148, -187500.02235174447, -187500.02235174447, 28147.551792568185, -187500.02235174447, 4416.056503779471, -803.1428817680934, -0.186, 0.976, 0.014, 192.0, 0.0, 0.0, 0.0, 0.0, 0.0, 0.0, 0.0, 0.0, 0.0, 1.696109060072435E9, 0.0, 2023-09-30 16:24:20.072
252.0, 27376.729533282465, 18340.58980233548, -187500.02235174447, -187500.02235174447, 28241.33971230265, -187500.02235174447, 4590.444814019777, -435.300223267105, -0.186, 0.976, 0.014, 192.0, 0.0, 0.0, 0.0, 0.0, 0.0, 0.0, 0.0, 0.0, 0.0, 1.6961090600724475E9, 0.0, 2023-09-30 16:24:20.072
253.0, 27289.11069501766, 18315.77936599009, -187500.02235174447, -187500.02235174447, 28194.24458673532, -187500.02235174447, 4570.842334132473, -490.8666599829984, -0.186, 0.976, 0.014, 192.0, 0.0, 0.0, 0.0, 0.0, 0.0, 0.0, 0.0, 0.0, 0.0, 1.6961090600724583E9, 0.0, 2023-09-30 16:24:20.072
254.0, 27322.16892506706, 18334.040741210072, -187500.02235174447, -187500.02235174447, 28080.116579546524, -187500.02235174447, 4378.639683561288, -893.7568537899082, -0.186, 0.974, 0.016, 192.0, 250.0, 48.0, 30.0, 112.0, 0.0, 128.0, 0.0, 0.0, 0.0, 1.696109060072469E9, 0.0, 2023-09-30 16:24:20.072
255.0, 27417.253245979937, 18368.01539278214, -187500.02235174447, -187500.02235174447, 28105.597568225574, -187500.02235174447, 4383.892343508285, -869.7287285004531, -0.186, 0.974, 0.016, 192.0, 0.0, 0.0, 0.0, 0.0, 0.0, 0.0, 0.0, 0.0, 0.0, 1.6961090600724797E9, 0.0, 2023-09-30 16:24:20.072
0.0, 27400.04240274935, 18358.225328710716, -187500.02235174447, -187500.02235174447, 28197.306775725698, -187500.02235174447, 4543.573205896999, -521.6897155868669, -0.186, 0.974, 0.016, 192.0, 0.0, 0.0, 0.0, 0.0, 0.0, 0.0, 0.0, 0.0, 0.0, 1.6961090600724905E9, 0.0, 2023-09-30 16:24:20.072
1.0, 27308.444953971502, 18327.223459151206, -187500.02235174447, -187500.02235174447, 28198.647880393015, -187500.02235174447, 4582.197020315769, -461.3847090464484, -0.186, 0.974, 0.016, 192.0, 0.0, 0.0, 0.0, 0.0, 0.0, 0.0, 0.0, 0.0, 0.0, 1.696109060072501E9, 0.0, 2023-09-30 16:24:20.072
2.0, 27301.046526556795, 18329.39157836337, -187500.02235174447, -187500.02235174447, 28082.195291780867, -187500.02235174447, 4391.1566604562595, -874.2661326248805, -0.186, 0.974, 0.016, 192.0, 0.0, 0.0, 0.0, 0.0, 0.0, 0.0, 0.0, 0.0, 0.0, 1.6961090600725114E9, 0.0, 2023-09-30 16:24:20.072
3.0, 27414.19105698956, 18350.983363507195, -187500.02235174447, -187500.02235174447, 28112.124277606523, -187500.02235174447, 4391.737805812098, -905.7373888179528, -0.186, 0.974, 0.016, 192.0, 0.0, 0.0, 0.0, 0.0, 0.0, 0.0, 0.0, 0.0, 0.0, 1.6961090600725224E9, 0.0, 2023-09-30 16:24:20.072
4.0, 27403.417516162102, 18348.971706506218, -187500.02235174447, -187500.02235174447, 28217.69156666894, -187500.02235174447, 4573.368081255922, -545.6060821540455, -0.186, 0.974, 0.016, 192.0, 0.0, 0.0, 0.0, 0.0, 0.0, 0.0, 0.0, 0.0, 0.0, 1.696109060072533E9, 0.0, 2023-09-30 16:24:20.072
5.0, 27324.113526834673, 18322.373130604403, -187500.02235174447, -187500.02235174447, 28243.932514659467, -187500.02235174447, 4662.506838143688, -373.85527775946593, -0.186, 0.974, 0.016, 192.0, 0.0, 0.0, 0.0, 0.0, 0.0, 0.0, 0.0, 0.0, 0.0, 1.6961090600725453E9, 0.0, 2023-09-30 16:24:20.072
6.0, 27284.10390425967, 18317.478098568692, -187500.02235174447, -187500.02235174447, 28131.659702260462, -187500.02235174447, 4487.559734291999, -753.3431951216693, -0.186, 0.974, 0.016, 192.0, 0.0, 0.0, 0.0, 0.0, 0.0, 0.0, 0.0, 0.0, 0.0, 1.6961090600725555E9, 0.0, 2023-09-30 16:24:20.072
7.0, 27389.581786344264, 18351.6315640964, -187500.02235174447, -187500.02235174447, 28112.28073981771, -187500.02235174447, 4408.4122071757565, -909.1795574640701, -0.186, 0.974, 0.016, 192.0, 0.0, 0.0, 0.0, 0.0, 0.0, 0.0, 0.0, 0.0, 0.0, 1.6961090600725663E9, 0.0, 2023-09-30 16:24:20.072
8.0, 27402.188170217058, 18362.7850845796, -187500.02235174447, -187500.02235174447, 28177.77135107176, -187500.02235174447, 4511.632563070365, -649.6981560824104, -0.178, 0.974, 0.018000000000000002, 192.0, 250.0, 112.0, 30.0, 112.0, 0.0, 144.0, 0.0, 0.0, 0.0, 1.6961090600725768E9, 0.0, 2023-09-30 16:24:20.072
9.0, 27334.864715917676, 18333.57135457651, -187500.02235174447, -187500.02235174447, 28220.35142425912, -187500.02235174447, 4623.3689336024445, -408.05344677608576, -0.178, 0.974, 0.018000000000000002, 192.0, 0.0, 0.0, 0.0, 0.0, 0.0, 0.0, 0.0, 0.0, 0.0, 1.696109060072588E9, 0.0, 2023-09-30 16:24:20.072
10.0, 27264.6355348391, 18320.4732323257, -187500.02235174447, -187500.02235174447, 28092.857073886047, -187500.02235174447, 4452.109867585882, -761.9039132480518, -0.178, 0.974, 0.018000000000000002, 192.0, 0.0, 0.0, 0.0, 0.0, 0.0, 0.0, 0.0, 0.0, 0.0, 1.6961090600725987E9, 0.0, 2023-09-30 16:24:20.072
11.0, 27368.99582970093, 18341.752093047155, -187500.02235174447, -187500.02235174447, 28062.36929444901, -187500.02235174447, 4348.531883779989, -991.3669218262341, -0.178, 0.974, 0.018000000000000002, 192.0, 0.0, 0.0, 0.0, 0.0, 0.0, 0.0, 0.0, 0.0, 0.0, 1.6961090600726092E9, 0.0, 2023-09-30 16:24:20.072
12.0, 27390.766428800398, 18349.932831517795, -187500.02235174447, -187500.02235174447, 28141.986208198814, -187500.02235174447, 4461.989338635128, -751.1303724205939, -0.178, 0.974, 0.018000000000000002, 192.0, 0.0, 0.0, 0.0, 0.0, 0.0, 0.0, 0.0, 0.0, 0.0, 1.69610906007262E9, 0.0, 2023-09-30 16:24:20.072
13.0, 27347.42639630156, 18337.10293020045, -187500.02235174447, -187500.02235174447, 28219.457354480906, -187500.02235174447, 4617.512776555154, -433.06504882157435, -0.178, 0.974, 0.018000000000000002, 192.0, 0.0, 0.0, 0.0, 0.0, 0.0, 0.0, 0.0, 0.0, 0.0, 1.6961090600726306E9, 0.0, 2023-09-30 16:24:20.072
14.0, 27261.550994104266, 18322.037854437574, -187500.02235174447, -187500.02235174447, 28126.496449291284, -187500.02235174447, 4499.27204838658, -684.0527873102174, -0.178, 0.974, 0.018000000000000002, 192.0, 0.0, 0.0, 0.0, 0.0, 0.0, 0.0, 0.0, 0.0, 0.0, 1.6961090600726411E9, 0.0, 2023-09-30 16:24:20.072
15.0, 27343.112509621682, 18341.506223858145, -187500.02235174447, -187500.02235174447, 28063.911564816426, -187500.02235174447, 4349.045973902461, -1000.3970265861782, -0.178, 0.974, 0.018000000000000002, 192.0, 0.0, 0.0, 0.0, 0.0, 0.0, 0.0, 0.0, 0.0, 0.0, 1.696109060072652E9, 0.0, 2023-09-30 16:24:20.072
16.0, 27404.535103384867, 18357.510072888144, -187500.02235174447, -187500.02235174447, 28134.341911595096, -187500.02235174447, 4432.887367354318, -823.1476930555932, -0.178, 0.974, 0.018000000000000002, 192.0, 0.0, 0.0, 0.0, 0.0, 0.0, 0.0, 0.0, 0.0, 0.0, 1.6961090600726628E9, 0.0, 2023-09-30 16:24:20.072
17.0, 27382.049248462827, 18340.00865697964, -187500.02235174447, -187500.02235174447, 28224.531200472262, -187500.02235174447, 4597.284447823101, -469.11841262798464, -0.178, 0.974, 0.018000000000000002, 192.0, 0.0, 0.0, 0.0, 0.0, 0.0, 0.0, 0.0, 0.0, 0.0, 1.6961090600726736E9, 0.0, 2023-09-30 16:24:20.072
18.0, 27271.989258764897, 18306.883371696877, -187500.02235174447, -187500.02235174447, 28168.696542822905, -187500.02235174447, 4545.428400686789, -590.3542745535701, -0.178, 0.974, 0.018000000000000002, 192.0, 0.0, 0.0, 0.0, 0.0, 0.0, 0.0, 0.0, 0.0, 0.0, 1.6961090600726843E9, 0.0, 2023-09-30 16:24:20.072
19.0, 27312.35650925118, 18323.71423527172, -187500.02235174447, -187500.02235174447, 28071.73467537578, -187500.02235174447, 4364.982767699095, -965.6847674470863, -0.182, 0.972, 0.016, 192.0, 250.0, 80.0, 30.0, 96.0, 0.0, 128.0, 0.0, 0.0, 0.0, 1.6961090600726953E9, 0.0, 2023-09-30 16:24:20.072
20.0, 27398.120152726195, 18338.064055212028, -187500.02235174447, -187500.02235174447, 28139.23694363081, -187500.02235174447, 4427.008858562572, -848.9416061570175, -0.182, 0.972, 0.016, 192.0, 0.0, 0.0, 0.0, 0.0, 0.0, 0.0, 0.0, 0.0, 0.0, 1.696109060072706E9, 0.0, 2023-09-30 16:24:20.072
21.0, 27364.637239532145, 18336.499433100158, -187500.02235174447, -187500.02235174447, 28228.10747958511, -187500.02235174447, 4588.455508763255, -489.9949419492414, -0.182, 0.972, 0.016, 192.0, 0.0, 0.0, 0.0, 0.0, 0.0, 0.0, 0.0, 0.0, 0.0, 1.6961090600727167E9, 0.0, 2023-09-30 16:24:20.072
22.0, 27264.8367005392, 18306.190467618762, -187500.02235174447, -187500.02235174447, 28187.740229098825, -187500.02235174447, 4569.948264354261, -517.6440498404563, -0.182, 0.972, 0.016, 192.0, 0.0, 0.0, 0.0, 0.0, 0.0, 0.0, 0.0, 0.0, 0.0, 1.696109060072728E9, 0.0, 2023-09-30 16:24:20.072
23.0, 27287.702535116976, 18313.00774967763, -187500.02235174447, -187500.02235174447, 28059.441215925362, -187500.02235174447, 4356.511456550534, -945.4340869705782, -0.182, 0.972, 0.016, 192.0, 0.0, 0.0, 0.0, 0.0, 0.0, 0.0, 0.0, 0.0, 0.0, 1.6961090600727384E9, 0.0, 2023-09-30 16:24:20.072
24.0, 27383.971498485986, 18329.570392319012, -187500.02235174447, -187500.02235174447, 28088.40907673944, -187500.02235174447, 4357.33847109538, -940.2037787680363, -0.182, 0.972, 0.016, 192.0, 0.0, 0.0, 0.0, 0.0, 0.0, 0.0, 0.0, 0.0, 0.0, 1.6961090600727491E9, 0.0, 2023-09-30 16:24:20.072
25.0, 27367.31944886678, 18326.038816695072, -187500.02235174447, -187500.02235174447, 28184.789798830727, -187500.02235174447, 4517.980458495672, -587.6720652189333, -0.182, 0.972, 0.016, 192.0, 0.0, 0.0, 0.0, 0.0, 0.0, 0.0, 0.0, 0.0, 0.0, 1.6961090600727603E9, 0.0, 2023-09-30 16:24:20.072
