%OpenBCI Raw EXG Data
%Number of channels = 8
%Sample Rate = 250 Hz
%Board = OpenBCI_GUI$BoardCytonSerial
Sample Index, EXG Channel 0, EXG Channel 1, EXG Channel 2, EXG Channel 3, EXG Channel 4, EXG Channel 5, EXG Channel 6, EXG Channel 7, Accel Channel 0, Accel Channel 1, Accel Channel 2, Other, Other, Other, Other, Other, Other, Other, Analog Channel 0, Analog Channel 1, Analog Channel 2, Timestamp, Other, Timestamp (Formatted)
0.0, 155253.87588189554, 153219.4648050624, -187500.02235174447, -182180.3071713814, 142971.32408277085, -187500.02235174447, 8987.211762334318, 99893.72341558021, -0.048, 0.488, -0.02, 192.0, 254.0, 128.0, 15.0, 64.0, 255.0, 96.0, 0.0, 0.0, 0.0, 1.6961086535239496E9, 0.0, 2023-09-30 16:17:33.523
1.0, 155189.01111948624, 154125.626877025, -187500.02235174447, -182424.2541103666, 142696.5317364373, -187500.02235174447, 8803.212201978231, 99732.54498631299, -0.048, 0.488, -0.02, 192.0, 0.0, 0.0, 0.0, 0.0, 0.0, 0.0, 0.0, 0.0, 0.0, 1.6961086539673977E9, 0.0, 2023-09-30 16:17:33.967
2.0, 154981.09519256296, 153657.13431324178, -187500.02235174447, -182203.62004084827, 142372.54320055761, -187500.02235174447, 8705.400968241807, 99845.24248185665, -0.048, 0.488, -0.02, 192.0, 0.0, 0.0, 0.0, 0.0, 0.0, 0.0, 0.0, 0.0, 0.0, 1.6961086539675813E9, 0.0, 2023-09-30 16:17:33.967
3.0, 154417.76417705585, 152423.56388849783, -187500.02235174447, -181980.43787246203, 142254.0789549445, -187500.02235174447, 8893.066214688566, 99641.4169241687, -0.048, 0.488, -0.02, 192.0, 0.0, 0.0, 0.0, 0.0, 0.0, 0.0, 0.0, 0.0, 0.0, 1.6961086539676137E9, 0.0, 2023-09-30 16:17:33.967
4.0, 153857.74121972814, 151719.2604207111, -187500.02235174447, -182036.2725301114, 142221.84773943995, -187500.02235174447, 9110.258115560784, 99180.0098633778, -0.048, 0.488, -0.02, 192.0, 0.0, 0.0, 0.0, 0.0, 0.0, 0.0, 0.0, 0.0, 0.0, 1.696108653967667E9, 0.0, 2023-09-30 16:17:33.967
5.0, 153755.59374756739, 152570.03486991345, -187500.02235174447, -182268.10482360184, 142001.43718736616, -187500.02235174447, 9005.204916620842, 98896.27681926213, -0.048, 0.488, -0.02, 192.0, 0.0, 0.0, 0.0, 0.0, 0.0, 0.0, 0.0, 0.0, 0.0, 1.6961086539676845E9, 0.0, 2023-09-30 16:17:33.967
6.0, 153688.2255897791, 152499.58217139033, -187500.02235174447, -182113.8330833713, 141684.31063703427, -187500.02235174447, 8874.558970279571, 98957.76646825868, -0.048, 0.488, -0.02, 192.0, 0.0, 0.0, 0.0, 0.0, 0.0, 0.0, 0.0, 0.0, 0.0, 1.6961086539676971E9, 0.0, 2023-09-30 16:17:33.967
7.0, 153189.60287447012, 151303.9650087315, -187500.02235174447, -181816.48782688237, 141545.59571094462, -187500.02235174447, 9040.900652515968, 98803.42767279479, -0.07200000000000001, 0.732, -0.034, 192.0, 253.0, 192.0, 22.0, 224.0, 254.0, 240.0, 0.0, 0.0, 0.0, 1.6961086539677098E9, 0.0, 2023-09-30 16:17:33.967
8.0, 152674.50692349757, 150497.08938563935, -187500.02235174447, -181794.38195161606, 141543.91933011048, -187500.02235174447, 9299.912667264065, 98382.54432470136, -0.07200000000000001, 0.732, -0.034, 192.0, 0.0, 0.0, 0.0, 0.0, 0.0, 0.0, 0.0, 0.0, 0.0, 1.696108653967723E9, 0.0, 2023-09-30 16:17:33.967
9.0, 152523.43148272415, 151181.32098690522, -187500.02235174447, -181977.66625614956, 141383.79143283266, -187500.02235174447, 9276.152762908074, 98084.61792285656, -0.07200000000000001, 0.732, -0.034, 192.0, 0.0, 0.0, 0.0, 0.0, 0.0, 0.0, 0.0, 0.0, 0.0, 1.696108653967736E9, 0.0, 2023-09-30 16:17:33.967
10.0, 152591.73841377956, 151522.2074415931, -187500.02235174447, -181878.0221793678, 141086.557935066, -187500.02235174447, 9119.243516831817, 98175.63422627858, -0.07200000000000001, 0.732, -0.034, 192.0, 0.0, 0.0, 0.0, 0.0, 0.0, 0.0, 0.0, 0.0, 0.0, 1.69610865396775E9, 0.0, 2023-09-30 16:17:33.967
11.0, 152156.5723009792, 150355.71460195954, -187500.02235174447, -181510.40303831137, 140921.6691162192, -187500.02235174447, 9250.761181206844, 98141.90544389552, -0.07200000000000001, 0.732, -0.034, 192.0, 0.0, 0.0, 0.0, 0.0, 0.0, 0.0, 0.0, 0.0, 0.0, 1.6961086539677634E9, 0.0, 2023-09-30 16:17:33.967
12.0, 151607.81462285694, 149367.7451452905, -187500.02235174447, -181438.51982814312, 140895.53992695094, -187500.02235174447, 9498.26204756046, 97754.08032585148, -0.07200000000000001, 0.732, -0.034, 192.0, 0.0, 0.0, 0.0, 0.0, 0.0, 0.0, 0.0, 0.0, 0.0, 1.6961086539677777E9, 0.0, 2023-09-30 16:17:33.967
13.0, 151292.72208127048, 149709.81624243455, -187500.02235174447, -181599.92177485488, 140738.45186691903, -187500.02235174447, 9516.948105925096, 97376.62641723471, -0.07200000000000001, 0.732, -0.034, 192.0, 0.0, 0.0, 0.0, 0.0, 0.0, 0.0, 0.0, 0.0, 0.0, 1.6961086539677925E9, 0.0, 2023-09-30 16:17:33.967
14.0, 151358.99500358046, 150338.14613081768, -187500.02235174447, -181611.74584767173, 140398.7500546873, -187500.02235174447, 9302.661931832068, 97374.8382776783, -0.07200000000000001, 0.732, -0.034, 192.0, 0.0, 0.0, 0.0, 0.0, 0.0, 0.0, 0.0, 0.0, 0.0, 1.6961086539678075E9, 0.0, 2023-09-30 16:17:33.967
15.0, 150970.00759482474, 149260.36736492722, -187500.02235174447, -181247.25595083906, 140147.15881909835, -187444.4335632841, 9352.059287078297, 97340.5730534283, -0.07200000000000001, 0.732, -0.034, 192.0, 0.0, 0.0, 0.0, 0.0, 0.0, 0.0, 0.0, 0.0, 0.0, 1.6961086539678228E9, 0.0, 2023-09-30 16:17:33.967
16.0, 150434.95153605362, 148186.65661652765, -187500.02235174447, -181138.29119661942, 140066.37961463685, -187193.42347305102, 9567.865379794286, 96930.0832665066, -0.07200000000000001, 0.732, -0.034, 192.0, 0.0, 0.0, 0.0, 0.0, 0.0, 0.0, 0.0, 0.0, 0.0, 1.69610865396784E9, 0.0, 2023-09-30 16:17:33.967
17.0, 150011.4530338589, 148170.8762849422, -187500.02235174447, -181273.76511976303, 139900.99905741203, -187256.36598543718, 9620.14611007525, 96457.05329859893, -0.084, 0.854, -0.04, 192.0, 253.0, 96.0, 26.0, 176.0, 254.0, 192.0, 0.0, 0.0, 0.0, 1.6961086539678576E9, 0.0, 2023-09-30 16:17:33.967
18.0, 150035.16823472598, 148967.3136433737, -187500.02235174447, -181379.310057081, 139522.31580285024, -187410.79418787887, 9368.465467508491, 96340.95833789806, -0.084, 0.854, -0.04, 192.0, 0.0, 0.0, 0.0, 0.0, 0.0, 0.0, 0.0, 0.0, 0.0, 1.6961086539678774E9, 0.0, 2023-09-30 16:17:33.967
19.0, 149674.74635538415, 148010.05548358627, -187500.02235174447, -181040.5246663719, 139187.24080172073, -187036.31306127468, 9337.597708415713, 96334.92336689513, -0.084, 0.854, -0.04, 192.0, 0.0, 0.0, 0.0, 0.0, 0.0, 0.0, 0.0, 0.0, 0.0, 1.6961086539678955E9, 0.0, 2023-09-30 16:17:33.967
20.0, 149082.46983080744, 146824.2060332544, -187500.02235174447, -180887.9963622089, 139036.07595396947, -186746.29917696706, 9525.017085673462, 95964.21968510386, -0.084, 0.854, -0.04, 192.0, 0.0, 0.0, 0.0, 0.0, 0.0, 0.0, 0.0, 0.0, 0.0, 1.6961086539679084E9, 0.0, 2023-09-30 16:17:33.967
21.0, 148552.554673261, 146479.2739128201, -187500.02235174447, -180979.88438366467, 138861.39707105127, -186738.34195594097, 9637.960450406128, 95474.3812053658, -0.084, 0.854, -0.04, 192.0, 0.0, 0.0, 0.0, 0.0, 0.0, 0.0, 0.0, 0.0, 0.0, 1.6961086539679227E9, 0.0, 2023-09-30 16:17:33.967
22.0, 148525.79963514803, 147381.01033938056, -187500.02235174447, -181139.58759779783, 138464.56419999173, -186931.48337977927, 9415.024151208896, 95293.71205493357, -0.084, 0.854, -0.04, 192.0, 0.0, 0.0, 0.0, 0.0, 0.0, 0.0, 0.0, 0.0, 0.0, 1.6961086539679377E9, 0.0, 2023-09-30 16:17:33.967
23.0, 148247.49806493497, 146695.19176425837, -187500.02235174447, -180845.25982681036, 138060.75758466215, -186612.3898759353, 9330.579260656747, 95316.73435172252, -0.084, 0.854, -0.04, 192.0, 0.0, 0.0, 0.0, 0.0, 0.0, 0.0, 0.0, 0.0, 0.0, 1.696108653967962E9, 0.0, 2023-09-30 16:17:33.967
24.0, 147639.95529889528, 145449.21612134174, -187500.02235174447, -180638.7744115322, 137850.42766933772, -186266.67544444508, 9500.340759794803, 94978.10542322462, -0.084, 0.854, -0.04, 192.0, 0.0, 0.0, 0.0, 0.0, 0.0, 0.0, 0.0, 0.0, 0.0, 1.6961086539679766E9, 0.0, 2023-09-30 16:17:33.967
25.0, 147032.16666366658, 144831.86093948616, -187500.02235174447, -180695.72665640435, 137682.2978475449, -186192.35589413118, 9654.277223858504, 94422.06107640995, -0.084, 0.854, -0.04, 192.0, 0.0, 0.0, 0.0, 0.0, 0.0, 0.0, 0.0, 0.0, 0.0, 1.6961086539679976E9, 0.0, 2023-09-30 16:17:33.967
26.0, 146889.920161953, 145691.53138298172, -187500.02235174447, -180889.69509478752, 137308.4649215299, -186392.51576572846, 9465.807314611355, 94088.23777296994, -0.084, 0.854, -0.04, 192.0, 0.0, 0.0, 0.0, 0.0, 0.0, 0.0, 0.0, 0.0, 0.0, 1.6961086539680119E9, 0.0, 2023-09-30 16:17:33.968
27.0, 146726.14893032896, 145353.08126843945, -187500.02235174447, -180666.62468512353, 136874.9081343303, -186155.6990332245, 9320.27510646285, 94044.71892651546, -0.094, 0.924, -0.042, 192.0, 253.0, 16.0, 28.0, 224.0, 254.0, 176.0, 0.0, 0.0, 0.0, 1.696108653968028E9, 0.0, 2023-09-30 16:17:33.968
28.0, 146200.12297631777, 144113.98996281505, -187500.02235174447, -180398.04612374856, 136631.31882325636, -185761.70483371077, 9462.365145965237, 93729.78284714019, -0.094, 0.924, -0.042, 192.0, 0.0, 0.0, 0.0, 0.0, 0.0, 0.0, 0.0, 0.0, 0.0, 1.696108653968047E9, 0.0, 2023-09-30 16:17:33.968
29.0, 145647.05141151565, 143331.25422373466, -187500.02235174447, -180402.47176915072, 136486.3230569748, -185624.48747449965, 9654.701907003155, 93178.32060793885, -0.094, 0.924, -0.042, 192.0, 0.0, 0.0, 0.0, 0.0, 0.0, 0.0, 0.0, 0.0, 0.0, 1.6961086539680624E9, 0.0, 2023-09-30 16:17:33.968
30.0, 145459.40851681336, 144097.44967191812, -187500.02235174447, -180586.7842539292, 136159.51820129374, -185803.88257549793, 9536.50588232349, 92806.02995229125, -0.094, 0.924, -0.042, 192.0, 0.0, 0.0, 0.0, 0.0, 0.0, 0.0, 0.0, 0.0, 0.0, 1.6961086539680853E9, 0.0, 2023-09-30 16:17:33.968
31.0, 145398.34355096146, 144171.7245187431, -187500.02235174447, -180445.4318219938, 135725.11204780484, -185685.86536477393, 9344.906728852598, 92811.28261223825, -0.094, 0.924, -0.042, 192.0, 0.0, 0.0, 0.0, 0.0, 0.0, 0.0, 0.0, 0.0, 0.0, 1.6961086539681048E9, 0.0, 2023-09-30 16:17:33.968
32.0, 144897.73153039595, 142949.26291099345, -187500.02235174447, -180127.43355362816, 135458.0310533084, -185280.15885116564, 9447.076552757806, 92626.27722338166, -0.094, 0.924, -0.042, 192.0, 0.0, 0.0, 0.0, 0.0, 0.0, 0.0, 0.0, 0.0, 0.0, 1.6961086539681213E9, 0.0, 2023-09-30 16:17:33.968
33.0, 144333.64055557735, 142033.0202022815, -187500.02235174447, -180082.9088786732, 135342.51723796336, -185104.27297404685, 9655.037183169983, 92151.77204033996, -0.094, 0.924, -0.042, 192.0, 0.0, 0.0, 0.0, 0.0, 0.0, 0.0, 0.0, 0.0, 0.0, 1.6961086539681337E9, 0.0, 2023-09-30 16:17:33.968
34.0, 144077.86954377528, 142559.67200513746, -187500.02235174447, -180234.47605782462, 135086.25448778327, -185245.49129551547, 9602.37647323328, 91764.52806765176, -0.094, 0.924, -0.042, 192.0, 0.0, 0.0, 0.0, 0.0, 0.0, 0.0, 0.0, 0.0, 0.0, 1.696108653968148E9, 0.0, 2023-09-30 16:17:33.968
35.0, 144142.53314048448, 143048.57171160838, -187500.02235174447, -180168.65017040377, 134689.8910033573, -185242.3620512917, 9369.851275664721, 91748.88184653306, -0.094, 0.924, -0.042, 192.0, 0.0, 0.0, 0.0, 0.0, 0.0, 0.0, 0.0, 0.0, 0.0, 1.6961086539681609E9, 0.0, 2023-09-30 16:17:33.968
36.0, 143795.85758398267, 142015.02704799498, -187500.02235174447, -179804.27203229335, 134436.95866310105, -184841.41645925242, 9426.021209480907, 91644.78977260468, -0.094, 0.924, -0.042, 192.0, 0.0, 0.0, 0.0, 0.0, 0.0, 0.0, 0.0, 0.0, 0.0, 1.6961086539681733E9, 0.0, 2023-09-30 16:17:33.968
37.0, 143369.74392768668, 141128.48980766415, -187500.02235174447, -179693.04975188372, 134377.07833970527, -184631.91355847282, 9644.91184293173, 91227.46035187965, -0.094, 0.924, -0.042, 192.0, 0.0, 0.0, 0.0, 0.0, 0.0, 0.0, 0.0, 0.0, 0.0, 1.696108653968187E9, 0.0, 2023-09-30 16:17:33.968
38.0, 143117.5715467419, 141441.0342503827, -187500.02235174447, -179783.99900007236, 134213.06123889223, -184717.99012637022, 9672.762116523041, 90826.5371115848, -0.092, 0.9560000000000001, -0.04, 192.0, 253.0, 32.0, 29.0, 224.0, 254.0, 192.0, 0.0, 0.0, 0.0, 1.6961086539682016E9, 0.0, 2023-09-30 16:17:33.968
39.0, 143294.53030759457, 142258.86222825793, -187500.02235174447, -179781.42854946002, 133844.90565596888, -184815.48843568427, 9425.708285058534, 90796.07168389222, -0.092, 0.9560000000000001, -0.04, 192.0, 0.0, 0.0, 0.0, 0.0, 0.0, 0.0, 0.0, 0.0, 0.0, 1.696108653968213E9, 0.0, 2023-09-30 16:17:33.968
40.0, 143062.6086071263, 141380.12574674198, -187500.02235174447, -179399.0349053186, 133560.63616998628, -184446.21526553814, 9427.585831592778, 90791.46722453443, -0.092, 0.9560000000000001, -0.04, 192.0, 0.0, 0.0, 0.0, 0.0, 0.0, 0.0, 0.0, 0.0, 0.0, 1.6961086539682252E9, 0.0, 2023-09-30 16:17:33.968
41.0, 142643.78161952278, 140423.26991835475, -187500.02235174447, -179236.64948185082, 133480.05813122488, -184207.58804173328, 9634.250060826547, 90436.36506037296, -0.092, 0.9560000000000001, -0.04, 192.0, 0.0, 0.0, 0.0, 0.0, 0.0, 0.0, 0.0, 0.0, 0.0, 1.6961086539682376E9, 0.0, 2023-09-30 16:17:33.968
42.0, 142339.32850829704, 140473.29312244573, -187500.02235174447, -179291.8135871665, 133353.39079539667, -184238.85813222625, 9720.460739190667, 90030.39032583122, -0.092, 0.9560000000000001, -0.04, 192.0, 0.0, 0.0, 0.0, 0.0, 0.0, 0.0, 0.0, 0.0, 0.0, 1.6961086539682565E9, 0.0, 2023-09-30 16:17:33.968
43.0, 142555.4475254354, 141587.03584516476, -187500.02235174447, -179362.087471734, 133012.95137559788, -184413.15703548875, 9460.73346862, 89979.89773510669, -0.092, 0.9560000000000001, -0.04, 192.0, 0.0, 0.0, 0.0, 0.0, 0.0, 0.0, 0.0, 0.0, 0.0, 1.6961086539682708E9, 0.0, 2023-09-30 16:17:33.968
44.0, 142515.8402342606, 141082.4452140862, -187500.02235174447, -179011.88033960824, 132711.4263428958, -184107.18400564004, 9369.940682642542, 90091.27647772747, -0.092, 0.9560000000000001, -0.04, 192.0, 0.0, 0.0, 0.0, 0.0, 0.0, 0.0, 0.0, 0.0, 0.0, 1.6961086539683049E9, 0.0, 2023-09-30 16:17:33.968
45.0, 142244.7806292511, 140233.5483114181, -187500.02235174447, -178812.703944767, 132619.5606731845, -183847.68025251394, 9511.941315167107, 89874.464556511, -0.092, 0.9560000000000001, -0.04, 192.0, 0.0, 0.0, 0.0, 0.0, 0.0, 0.0, 0.0, 0.0, 0.0, 1.6961086539683263E9, 0.0, 2023-09-30 16:17:33.968
46.0, 142030.44975166916, 140152.50088602316, -187500.02235174447, -178841.89532302564, 132547.31983510492, -183836.52673203073, 9605.349255245836, 89541.66943331592, -0.092, 0.9560000000000001, -0.04, 192.0, 0.0, 0.0, 0.0, 0.0, 0.0, 0.0, 0.0, 0.0, 0.0, 1.696108653968356E9, 0.0, 2023-09-30 16:17:33.968
47.0, 142348.96211015727, 141478.56282932317, -187500.02235174447, -178960.7395482945, 132272.0133986489, -184044.01797580934, 9350.159388799595, 89529.71125003234, -0.092, 0.9560000000000001, -0.04, 192.0, 0.0, 0.0, 0.0, 0.0, 0.0, 0.0, 0.0, 0.0, 0.0, 1.6961086539683793E9, 0.0, 2023-09-30 16:17:33.968
48.0, 142586.650560695, 141461.9331314484, -187500.02235174447, -178653.5595242452, 132005.7147152084, -183790.2809727527, 9204.24720099535, 89799.85443351918, -0.096, 0.966, -0.046, 192.0, 253.0, 0.0, 30.0, 48.0, 254.0, 144.0, 0.0, 0.0, 0.0, 1.6961086539684017E9, 0.0, 2023-09-30 16:17:33.968
49.0, 142513.9850394708, 140752.71227988153, -187500.02235174447, -178370.58643944102, 131966.06272054467, -183460.36922459237, 9347.633641676146, 89797.21692767345, -0.096, 0.966, -0.046, 192.0, 0.0, 0.0, 0.0, 0.0, 0.0, 0.0, 0.0, 0.0, 0.0, 1.6961086539684248E9, 0.0, 2023-09-30 16:17:33.968
50.0, 142447.0192130827, 140583.174298188, -187500.02235174447, -178322.21726443974, 132001.78080818427, -183371.00695026005, 9520.613792015767, 89616.3019080522, -0.096, 0.966, -0.046, 192.0, 0.0, 0.0, 0.0, 0.0, 0.0, 0.0, 0.0, 0.0, 0.0, 1.6961086539684515E9, 0.0, 2023-09-30 16:17:33.968
51.0, 142811.77733084885, 141932.70557316608, -187500.02235174447, -178434.73594602777, 131824.82204733157, -183583.61674351894, 9341.218691017471, 89661.63124580757, -0.096, 0.966, -0.046, 192.0, 0.0, 0.0, 0.0, 0.0, 0.0, 0.0, 0.0, 0.0, 0.0, 1.6961086539684803E9, 0.0, 2023-09-30 16:17:33.968
52.0, 143201.3458849604, 142295.96612405375, -187500.02235174447, -178211.91140555282, 131573.4990326761, -183467.32061711798, 9135.604993773102, 90004.75287494098, -0.096, 0.966, -0.046, 192.0, 0.0, 0.0, 0.0, 0.0, 0.0, 0.0, 0.0, 0.0, 0.0, 1.6961086539687896E9, 0.0, 2023-09-30 16:17:33.968
53.0, 143183.37508241835, 141587.99697017635, -187500.02235174447, -177936.38145165224, 131515.2950901145, -183188.46025329357, 9211.466814454416, 90066.33193091536, -0.096, 0.966, -0.046, 192.0, 0.0, 0.0, 0.0, 0.0, 0.0, 0.0, 0.0, 0.0, 0.0, 1.696108653968815E9, 0.0, 2023-09-30 16:17:33.968
54.0, 143139.9456429417, 141314.94805991033, -187500.02235174447, -177960.0519490304, 131582.52913743607, -183189.1308056272, 9348.013621331886, 89845.47434395246, -0.096, 0.966, -0.046, 192.0, 0.0, 0.0, 0.0, 0.0, 0.0, 0.0, 0.0, 0.0, 0.0, 1.6961086539688308E9, 0.0, 2023-09-30 16:17:33.968
55.0, 143463.97888231027, 142542.17058922895, -187500.02235174447, -178193.4712163772, 131476.62657220682, -183528.8102661145, 9161.331851641162, 89761.05180514477, -0.096, 0.966, -0.046, 192.0, 0.0, 0.0, 0.0, 0.0, 0.0, 0.0, 0.0, 0.0, 0.0, 1.696108653968848E9, 0.0, 2023-09-30 16:17:33.968
56.0, 144016.80457792338, 143353.76243040114, -187500.02235174447, -178174.6063440569, 131264.86614523723, -183659.1879915223, 8847.021621110633, 90044.06959343787, -0.096, 0.966, -0.046, 192.0, 0.0, 0.0, 0.0, 0.0, 0.0, 0.0, 0.0, 0.0, 0.0, 1.6961086539688659E9, 0.0, 2023-09-30 16:17:33.968
57.0, 144115.8675093493, 142702.38789348459, -187500.02235174447, -177935.73325106304, 131249.84577296328, -183453.3060733445, 8850.0391066121, 90186.00317072906, -0.096, 0.966, -0.046, 192.0, 0.0, 0.0, 0.0, 0.0, 0.0, 0.0, 0.0, 0.0, 0.0, 1.696108653968879E9, 0.0, 2023-09-30 16:17:33.968
58.0, 144036.63057525523, 142142.45434313468, -187500.02235174447, -177911.8392362403, 131413.25937667603, -183405.42863672122, 9017.051341182154, 90030.43502932013, -0.092, 0.974, -0.042, 192.0, 253.0, 32.0, 30.0, 112.0, 254.0, 176.0, 0.0, 0.0, 0.0, 1.6961086539688923E9, 0.0, 2023-09-30 16:17:33.968
59.0, 144142.04140210646, 142910.6838000636, -187500.02235174447, -178070.46956663963, 131433.30889145244, -183638.26675871215, 8947.649174648426, 89924.80068502435, -0.092, 0.974, -0.042, 192.0, 0.0, 0.0, 0.0, 0.0, 0.0, 0.0, 0.0, 0.0, 0.0, 1.6961086539689064E9, 0.0, 2023-09-30 16:17:33.968
60.0, 144633.6903731454, 143943.08852470978, -187500.02235174447, -178093.89419482878, 131301.8359305663, -183810.9339846294, 8652.628499582828, 90192.10519696536, -0.092, 0.974, -0.042, 192.0, 0.0, 0.0, 0.0, 0.0, 0.0, 0.0, 0.0, 0.0, 0.0, 1.6961086539689205E9, 0.0, 2023-09-30 16:17:33.968
61.0, 144720.68336256544, 143379.17636384684, -187500.02235174447, -177821.3593746852, 131336.65994842767, -183584.35435108596, 8646.079438457422, 90424.83156023403, -0.092, 0.974, -0.042, 192.0, 0.0, 0.0, 0.0, 0.0, 0.0, 0.0, 0.0, 0.0, 0.0, 1.6961086539689336E9, 0.0, 2023-09-30 16:17:33.968
62.0, 144634.60679466807, 142752.07582140874, -187500.02235174447, -177787.1165021797, 131578.08114028946, -183518.88609157637, 8830.973068591722, 90318.19138743775, -0.092, 0.974, -0.042, 192.0, 0.0, 0.0, 0.0, 0.0, 0.0, 0.0, 0.0, 0.0, 0.0, 1.6961086539689467E9, 0.0, 2023-09-30 16:17:33.968
63.0, 144641.06644881566, 143192.4498906672, -187500.02235174447, -177969.7079026351, 131702.06626678305, -183742.5152948517, 8833.476463970717, 90184.4385486172, -0.092, 0.974, -0.042, 192.0, 0.0, 0.0, 0.0, 0.0, 0.0, 0.0, 0.0, 0.0, 0.0, 1.6961086539689603E9, 0.0, 2023-09-30 16:17:33.968
64.0, 145091.40939610117, 144395.95721911875, -187500.02235174447, -178138.17300059475, 131605.6184894584, -184056.31143525976, 8518.272163661977, 90386.29715279308, -0.092, 0.974, -0.042, 192.0, 0.0, 0.0, 0.0, 0.0, 0.0, 0.0, 0.0, 0.0, 0.0, 1.6961086539689744E9, 0.0, 2023-09-30 16:17:33.968
65.0, 145183.7668041905, 143891.63480897367, -187500.02235174447, -177963.42706244317, 131575.98007631066, -183939.4565152474, 8420.19270899209, 90616.27425149373, -0.092, 0.974, -0.042, 192.0, 0.0, 0.0, 0.0, 0.0, 0.0, 0.0, 0.0, 0.0, 0.0, 1.6961086539689965E9, 0.0, 2023-09-30 16:17:33.968
66.0, 144954.2143886345, 143037.507598103, -187500.02235174447, -177973.3512369813, 131739.6395492124, -183901.0115147843, 8552.291518722954, 90473.5583631466, -0.092, 0.974, -0.042, 192.0, 0.0, 0.0, 0.0, 0.0, 0.0, 0.0, 0.0, 0.0, 0.0, 1.696108653969011E9, 0.0, 2023-09-30 16:17:33.969
67.0, 144721.08569396564, 142990.43482428012, -187500.02235174447, -178175.12043417938, 131853.18641104538, -184086.88862167462, 8601.241839080076, 90229.45496195018, -0.092, 0.974, -0.042, 192.0, 0.0, 0.0, 0.0, 0.0, 0.0, 0.0, 0.0, 0.0, 0.0, 1.6961086539690256E9, 0.0, 2023-09-30 16:17:33.969
68.0, 144972.9675022325, 144137.99573636006, -187500.02235174447, -178413.65825100642, 131732.4422874978, -184429.40675370776, 8305.841184358738, 90291.4139975803, -0.1, 0.984, -0.044, 192.0, 252.0, 224.0, 30.0, 192.0, 254.0, 160.0, 0.0, 0.0, 0.0, 1.69610865396904E9, 0.0, 2023-09-30 16:17:33.969
69.0, 145015.23465099747, 143752.3834410171, -187500.02235174447, -178281.49238604217, 131629.9148356813, -184340.24564507554, 8155.056316263237, 90491.55151743311, -0.1, 0.984, -0.044, 192.0, 0.0, 0.0, 0.0, 0.0, 0.0, 0.0, 0.0, 0.0, 0.0, 1.6961086539690528E9, 0.0, 2023-09-30 16:17:33.969
70.0, 144684.67470224795, 142701.6279341731, -187500.02235174447, -178246.40014724733, 131722.16048504837, -184240.6909752716, 8276.426288655555, 90326.64034684186, -0.1, 0.984, -0.044, 192.0, 0.0, 0.0, 0.0, 0.0, 0.0, 0.0, 0.0, 0.0, 0.0, 1.6961086539690676E9, 0.0, 2023-09-30 16:17:33.969
71.0, 144260.08096457494, 142251.4861525877, -187500.02235174447, -178417.63686151945, 131813.40030591493, -184360.74219474103, 8386.933313242593, 89978.0872438058, -0.1, 0.984, -0.044, 192.0, 0.0, 0.0, 0.0, 0.0, 0.0, 0.0, 0.0, 0.0, 0.0, 1.6961086539690797E9, 0.0, 2023-09-30 16:17:33.969
72.0, 144315.9156222243, 143328.9743458002, -187500.02235174447, -178695.89372824357, 131665.81173727653, -184723.66746946186, 8133.889214264062, 89882.62294323719, -0.1, 0.984, -0.044, 192.0, 0.0, 0.0, 0.0, 0.0, 0.0, 0.0, 0.0, 0.0, 0.0, 1.6961086539690948E9, 0.0, 2023-09-30 16:17:33.969
73.0, 144400.53932673208, 143266.70238574772, -187500.02235174447, -178636.99688160385, 131481.6333629648, -184736.34090856803, 7915.870298846996, 90030.97147118706, -0.1, 0.984, -0.044, 192.0, 0.0, 0.0, 0.0, 0.0, 0.0, 0.0, 0.0, 0.0, 0.0, 1.696108653969108E9, 0.0, 2023-09-30 16:17:33.969
74.0, 144086.83259330186, 142195.67384668277, -187500.02235174447, -178566.65594180298, 131491.19990959167, -184615.26150885364, 7997.253000408769, 89883.02527463737, -0.1, 0.984, -0.044, 192.0, 0.0, 0.0, 0.0, 0.0, 0.0, 0.0, 0.0, 0.0, 0.0, 1.6961086539691217E9, 0.0, 2023-09-30 16:17:33.969
75.0, 143606.22538402386, 141452.70186098837, -187500.02235174447, -178695.11141718764, 131553.49422138862, -184655.82992504002, 8141.399400401045, 89504.05144739765, -0.1, 0.984, -0.044, 192.0, 0.0, 0.0, 0.0, 0.0, 0.0, 0.0, 0.0, 0.0, 0.0, 1.6961086539691353E9, 0.0, 2023-09-30 16:17:33.969
76.0, 143482.28496101918, 142272.18386795328, -187500.02235174447, -178934.25273111498, 131396.20499565662, -184928.92353879494, 7960.998470902261, 89343.56592220854, -0.1, 0.984, -0.044, 192.0, 0.0, 0.0, 0.0, 0.0, 0.0, 0.0, 0.0, 0.0, 0.0, 1.696108653969148E9, 0.0, 2023-09-30 16:17:33.969
77.0, 143574.10592724156, 142505.24550738878, -187500.02235174447, -178860.3131604568, 131165.46793764448, -184906.2365181728, 7730.551985568045, 89533.82397101211, -0.1, 0.984, -0.044, 192.0, 0.0, 0.0, 0.0, 0.0, 0.0, 0.0, 0.0, 0.0, 0.0, 1.6961086539691617E9, 0.0, 2023-09-30 16:17:33.969
78.0, 143287.15423192433, 141486.43064337142, -187500.02235174447, -178630.47017222288, 131132.56616980626, -184596.95543014474, 7830.531338516634, 89514.15443589145, -0.1, 0.984, -0.044, 192.0, 0.0, 0.0, 0.0, 0.0, 0.0, 0.0, 0.0, 0.0, 0.0, 1.696108653969175E9, 0.0, 2023-09-30 16:17:33.969
79.0, 142862.76165995141, 140667.68624397353, -187500.02235174447, -178580.37991289856, 131226.4211447741, -184409.40194242026, 8067.2139605538805, 89225.0122696176, -0.1, 0.976, -0.052000000000000005, 192.0, 252.0, 224.0, 30.0, 128.0, 254.0, 96.0, 0.0, 0.0, 0.0, 1.6961086539691906E9, 0.0, 2023-09-30 16:17:33.969
80.0, 142743.8950829381, 141380.05869150863, -187500.02235174447, -178656.8675824246, 131142.91502748907, -184462.93437039072, 8024.96916353335, 89071.79106137647, -0.1, 0.976, -0.052000000000000005, 192.0, 0.0, 0.0, 0.0, 0.0, 0.0, 0.0, 0.0, 0.0, 0.0, 1.6961086539692063E9, 0.0, 2023-09-30 16:17:33.969
81.0, 143082.30049399144, 142185.2579337666, -187500.02235174447, -178536.61519725504, 130947.69489141642, -184399.90245102675, 7804.692721926299, 89308.831311325, -0.1, 0.976, -0.052000000000000005, 192.0, 0.0, 0.0, 0.0, 0.0, 0.0, 0.0, 0.0, 0.0, 0.0, 1.6961086539692204E9, 0.0, 2023-09-30 16:17:33.969
82.0, 143148.2381401346, 141606.43715935198, -187500.02235174447, -178188.17385294128, 130951.74055716283, -184033.95969080445, 7884.220228698281, 89463.55008644464, -0.1, 0.976, -0.052000000000000005, 192.0, 0.0, 0.0, 0.0, 0.0, 0.0, 0.0, 0.0, 0.0, 0.0, 1.696108653969237E9, 0.0, 2023-09-30 16:17:33.969
83.0, 143095.01863658652, 141085.88738273233, -187500.02235174447, -178046.15086867224, 131149.70995780348, -183833.41983955144, 8140.617089345109, 89333.21706452574, -0.1, 0.976, -0.052000000000000005, 192.0, 0.0, 0.0, 0.0, 0.0, 0.0, 0.0, 0.0, 0.0, 0.0, 1.696108653969252E9, 0.0, 2023-09-30 16:17:33.969
84.0, 143263.2602171016, 141918.4451602036, -187500.02235174447, -178077.37625567632, 131226.4211447741, -183917.99884057033, 8171.28368273779, 89270.58747656197, -0.1, 0.976, -0.052000000000000005, 192.0, 0.0, 0.0, 0.0, 0.0, 0.0, 0.0, 0.0, 0.0, 0.0, 1.6961086539692676E9, 0.0, 2023-09-30 16:17:33.969
85.0, 144007.21567955206, 143407.98776244972, -187500.02235174447, -178055.4268426212, 131145.64194031263, -184064.33571151923, 7918.2395837592585, 89593.23490777433, -0.1, 0.976, -0.052000000000000005, 192.0, 0.0, 0.0, 0.0, 0.0, 0.0, 0.0, 0.0, 0.0, 0.0, 1.696108653969288E9, 0.0, 2023-09-30 16:17:33.969
86.0, 144499.1999267578, 143318.3796189284, -187500.02235174447, -177760.54027802232, 131222.10725809424, -183865.02520621126, 7930.041304831661, 89916.39642910915, -0.1, 0.976, -0.052000000000000005, 192.0, 0.0, 0.0, 0.0, 0.0, 0.0, 0.0, 0.0, 0.0, 0.0, 1.696108653969306E9, 0.0, 2023-09-30 16:17:33.969
87.0, 144734.7202580834, 142946.0889632808, -187500.02235174447, -177649.04977667925, 131514.62453778082, -183762.76597532822, 8177.363357229634, 89922.09612394526, -0.1, 0.976, -0.052000000000000005, 192.0, 0.0, 0.0, 0.0, 0.0, 0.0, 0.0, 0.0, 0.0, 0.0, 1.696108653969329E9, 0.0, 2023-09-30 16:17:33.969
88.0, 144993.59816236474, 143569.07678473913, -187500.02235174447, -177706.0020215514, 131727.5025519732, -183891.3108576907, 8287.535105649842, 89918.18456866557, -0.1, 0.976, -0.052000000000000005, 192.0, 0.0, 0.0, 0.0, 0.0, 0.0, 0.0, 0.0, 0.0, 0.0, 1.6961086539693463E9, 0.0, 2023-09-30 16:17:33.969
89.0, 145788.403843451, 145269.5975028989, -187500.02235174447, -177783.85314748922, 131729.0448223406, -184168.2713232364, 8042.2694137417575, 90280.57340151948, -0.096, 0.972, -0.06, 192.0, 253.0, 0.0, 30.0, 96.0, 254.0, 32.0, 0.0, 0.0, 0.0, 1.6961086539693644E9, 0.0, 2023-09-30 16:17:33.969
90.0, 146392.10210944441, 145391.03453052457, -187500.02235174447, -177541.96256899388, 131816.4624949053, -184067.33084527624, 7979.52806705571, 90745.51203793431, -0.096, 0.972, -0.06, 192.0, 0.0, 0.0, 0.0, 0.0, 0.0, 0.0, 0.0, 0.0, 0.0, 1.6961086539693823E9, 0.0, 2023-09-30 16:17:33.969
91.0, 146632.3610105945, 144916.23877480492, -187500.02235174447, -177419.49736112327, 132118.8368938967, -183976.89568721005, 8180.3808427311, 90885.56806869127, -0.096, 0.972, -0.06, 192.0, 0.0, 0.0, 0.0, 0.0, 0.0, 0.0, 0.0, 0.0, 0.0, 1.6961086539694004E9, 0.0, 2023-09-30 16:17:33.969
92.0, 146723.35496227205, 145096.23737290353, -187500.02235174447, -177455.50602144076, 132372.46213823106, -184050.18705727902, 8320.906260121616, 90924.63891799914, -0.096, 0.972, -0.06, 192.0, 0.0, 0.0, 0.0, 0.0, 0.0, 0.0, 0.0, 0.0, 0.0, 1.696108653969416E9, 0.0, 2023-09-30 16:17:33.969
93.0, 147245.4470092591, 146585.42234723835, -187500.02235174447, -177542.63312132756, 132366.91890560614, -184270.0388157414, 8085.050652629216, 91278.60114319339, -0.096, 0.972, -0.06, 192.0, 0.0, 0.0, 0.0, 0.0, 0.0, 0.0, 0.0, 0.0, 0.0, 1.696108653969434E9, 0.0, 2023-09-30 16:17:33.969
94.0, 147628.82413015654, 146635.57966179607, -187500.02235174447, -177272.7805105186, 132359.498126447, -184065.36389176417, 7958.852703434552, 91816.80879793272, -0.096, 0.972, -0.06, 192.0, 0.0, 0.0, 0.0, 0.0, 0.0, 0.0, 0.0, 0.0, 0.0, 1.6961086539694507E9, 0.0, 2023-09-30 16:17:33.969
95.0, 147513.1091491114, 145731.652764279, -187500.02235174447, -176989.85212920335, 132546.3363583489, -183710.59700376954, 8157.179731986491, 92018.30977419732, -0.096, 0.972, -0.06, 192.0, 0.0, 0.0, 0.0, 0.0, 0.0, 0.0, 0.0, 0.0, 0.0, 1.6961086539694667E9, 0.0, 2023-09-30 16:17:33.969
96.0, 147230.2478230295, 145293.06683457695, -187500.02235174447, -176864.4364910646, 132747.99379682468, -183510.32537344997, 8386.75449928695, 92000.69659956654, -0.096, 0.972, -0.06, 192.0, 0.0, 0.0, 0.0, 0.0, 0.0, 0.0, 0.0, 0.0, 0.0, 1.6961086539694822E9, 0.0, 2023-09-30 16:17:33.969
97.0, 147446.5456541235, 146524.26797440863, -187500.02235174447, -176872.08078766832, 132708.0288777386, -183596.580755303, 8228.548852032287, 92198.88951765174, -0.096, 0.972, -0.06, 192.0, 0.0, 0.0, 0.0, 0.0, 0.0, 0.0, 0.0, 0.0, 0.0, 1.6961086539695013E9, 0.0, 2023-09-30 16:17:33.969
98.0, 147860.2540922468, 146928.11929322712, -187500.02235174447, -176604.06101990474, 132643.72290894066, -183420.47136073964, 8060.26256802828, 92654.99921500674, -0.096, 0.972, -0.06, 192.0, 0.0, 0.0, 0.0, 0.0, 0.0, 0.0, 0.0, 0.0, 0.0, 1.6961086539695213E9, 0.0, 2023-09-30 16:17:33.969
99.0, 147904.7117119684, 146227.99560165353, -187500.02235174447, -176278.73137935775, 132808.65643127638, -183084.30112413183, 8221.061017639759, 92841.83744690866, -0.11, 0.97, -0.076, 192.0, 252.0, 144.0, 30.0, 80.0, 253.0, 160.0, 0.0, 0.0, 0.0, 1.69610865396954E9, 0.0, 2023-09-30 16:17:33.969
100.0, 147827.57584185313, 145865.85263798866, -187500.02235174447, -176168.31376174855, 133085.57219333318, -182964.8310500182, 8469.701822960595, 92771.42945187444, -0.11, 0.97, -0.076, 192.0, 0.0, 0.0, 0.0, 0.0, 0.0, 0.0, 0.0, 0.0, 0.0, 1.6961086539695528E9, 0.0, 2023-09-30 16:17:33.969
101.0, 148231.60597462725, 147285.90366672323, -187500.02235174447, -176229.46813457826, 133187.6973137495, -183188.8849364382, 8372.359975857733, 92897.60504932464, -0.11, 0.97, -0.076, 192.0, 0.0, 0.0, 0.0, 0.0, 0.0, 0.0, 0.0, 0.0, 0.0, 1.6961086539695792E9, 0.0, 2023-09-30 16:17:33.969
102.0, 149086.26962736485, 148476.55874211297, -187500.02235174447, -176110.310984887, 133235.194770717, -183296.41917901268, 8150.071877249704, 93402.03921819202, -0.11, 0.97, -0.076, 192.0, 0.0, 0.0, 0.0, 0.0, 0.0, 0.0, 0.0, 0.0, 0.0, 1.6961086539696023E9, 0.0, 2023-09-30 16:17:33.969
103.0, 149570.36370877788, 148215.55742210837, -187500.02235174447, -175837.17266764317, 133499.5488523899, -183134.1231625227, 8260.176570436546, 93756.5825887421, -0.11, 0.97, -0.076, 192.0, 0.0, 0.0, 0.0, 0.0, 0.0, 0.0, 0.0, 0.0, 0.0, 1.6961086539696214E9, 0.0, 2023-09-30 16:17:33.969
104.0, 149790.7519091072, 147930.12564541408, -187500.02235174447, -175745.46346014304, 133912.74320039072, -183089.19615616754, 8534.007791758513, 93836.06539202516, -0.11, 0.97, -0.076, 192.0, 0.0, 0.0, 0.0, 0.0, 0.0, 0.0, 0.0, 0.0, 0.0, 1.696108653969637E9, 0.0, 2023-09-30 16:17:33.969
105.0, 150247.21923437348, 149164.03134632486, -187500.02235174447, -175809.00946962947, 134169.67650290448, -183330.75145849603, 8523.681285820161, 94025.47407453944, -0.11, 0.97, -0.076, 192.0, 0.0, 0.0, 0.0, 0.0, 0.0, 0.0, 0.0, 0.0, 0.0, 1.6961086539696527E9, 0.0, 2023-09-30 16:17:33.969
106.0, 151265.52000826836, 150763.6339382689, -187500.02235174447, -175777.56056518084, 134327.5021705034, -183591.39515058938, 8273.364099665177, 94590.14619471386, -0.11, 0.97, -0.076, 192.0, 0.0, 0.0, 0.0, 0.0, 0.0, 0.0, 0.0, 0.0, 0.0, 1.6961086539696736E9, 0.0, 2023-09-30 16:17:33.969
107.0, 151903.63996072294, 150717.56699294652, -187500.02235174447, -175519.35321323315, 134681.97848582012, -183523.53525442307, 8323.968449111993, 95071.55806679226, -0.11, 0.97, -0.076, 192.0, 0.0, 0.0, 0.0, 0.0, 0.0, 0.0, 0.0, 0.0, 0.0, 1.6961086539697049E9, 0.0, 2023-09-30 16:17:33.969
108.0, 152196.3137026207, 150383.83309648433, -187500.02235174447, -175430.4156220455, 135211.49131196635, -183524.85400734592, 8586.55674297294, 95234.65874608264, -0.11, 0.97, -0.076, 192.0, 0.0, 0.0, 0.0, 0.0, 0.0, 0.0, 0.0, 0.0, 0.0, 1.696108653969755E9, 0.0, 2023-09-30 16:17:33.969
109.0, 152532.506290973, 151222.694065892, -187500.02235174447, -175471.7663492878, 135604.36792425727, -183734.9157017369, 8652.606147838373, 95431.77878043399, -0.108, 0.96, -0.092, 192.0, 252.0, 160.0, 30.0, 0.0, 253.0, 32.0, 0.0, 0.0, 0.0, 1.6961086539697888E9, 0.0, 2023-09-30 16:17:33.969
110.0, 153452.481741009, 152965.79485723912, -187500.02235174447, -175487.45727389542, 135820.46458965118, -184054.07626081424, 8394.108223212746, 96000.94360124393, -0.108, 0.96, -0.092, 192.0, 0.0, 0.0, 0.0, 0.0, 0.0, 0.0, 0.0, 0.0, 0.0, 1.6961086539698215E9, 0.0, 2023-09-30 16:17:33.969
111.0, 154093.46271675383, 153000.30595067813, -187500.02235174447, -175211.72615429477, 136161.26163736125, -183994.3747513741, 8384.452269608053, 96579.80907914747, -0.108, 0.96, -0.092, 192.0, 0.0, 0.0, 0.0, 0.0, 0.0, 0.0, 0.0, 0.0, 0.0, 1.69610865396986E9, 0.0, 2023-09-30 16:17:33.969
112.0, 154318.83535609668, 152479.4432496361, -187500.02235174447, -175079.85086200846, 136682.5713732924, -183964.73633822636, 8630.477920827618, 96786.58506710352, -0.108, 0.96, -0.092, 192.0, 0.0, 0.0, 0.0, 0.0, 0.0, 0.0, 0.0, 0.0, 0.0, 1.6961086539698915E9, 0.0, 2023-09-30 16:17:33.969
113.0, 154469.6649276811, 152878.31012944106, -187500.02235174447, -175113.95962404725, 137095.94453524883, -184161.69991036653, 8747.601061773428, 96907.84328077357, -0.108, 0.96, -0.092, 192.0, 0.0, 0.0, 0.0, 0.0, 0.0, 0.0, 0.0, 0.0, 0.0, 1.6961086539699287E9, 0.0, 2023-09-30 16:17:33.969
114.0, 155251.23837604982, 154671.8588080238, -187500.02235174447, -175234.88256155045, 137281.53106946126, -184604.53267151507, 8468.539532248918, 97358.29798678137, -0.108, 0.96, -0.092, 192.0, 0.0, 0.0, 0.0, 0.0, 0.0, 0.0, 0.0, 0.0, 0.0, 1.6961086539699576E9, 0.0, 2023-09-30 16:17:33.969
115.0, 155934.28533485954, 154924.58998257996, -187500.02235174447, -175046.1667831143, 137547.29331103485, -184675.72297760524, 8368.493124066965, 97925.13822616795, -0.108, 0.96, -0.092, 192.0, 0.0, 0.0, 0.0, 0.0, 0.0, 0.0, 0.0, 0.0, 0.0, 1.6961086539700053E9, 0.0, 2023-09-30 16:17:33.970
116.0, 156165.13415159396, 154383.45424931697, -187500.02235174447, -174927.0319851675, 138016.67994459628, -184685.8930213324, 8578.1748388022, 98145.414667775, -0.108, 0.96, -0.092, 192.0, 0.0, 0.0, 0.0, 0.0, 0.0, 0.0, 0.0, 0.0, 0.0, 1.696108653970068E9, 0.0, 2023-09-30 16:17:33.970
117.0, 156224.00864648924, 154456.5444536858, -187500.02235174447, -174958.63735182732, 138453.433031253, -184860.0354623837, 8766.711803282715, 98217.85667155465, -0.108, 0.96, -0.092, 192.0, 0.0, 0.0, 0.0, 0.0, 0.0, 0.0, 0.0, 0.0, 0.0, 1.6961086539700935E9, 0.0, 2023-09-30 16:17:33.970
118.0, 156898.02550053902, 156222.10874821054, -187500.02235174447, -175105.64477510986, 138660.1866674646, -185317.4415609171, 8552.872664078792, 98586.41458587821, -0.108, 0.96, -0.092, 192.0, 0.0, 0.0, 0.0, 0.0, 0.0, 0.0, 0.0, 0.0, 0.0, 1.6961086539701235E9, 0.0, 2023-09-30 16:17:33.970
119.0, 157675.17330350558, 156810.94310414113, -187500.02235174447, -174960.26902917254, 138898.3892081248, -185463.84548709937, 8415.923525801127, 99182.5579622457, -0.108, 0.96, -0.092, 192.0, 0.0, 0.0, 0.0, 0.0, 0.0, 0.0, 0.0, 0.0, 0.0, 1.69610865397015E9, 0.0, 2023-09-30 16:17:33.970
120.0, 157980.07344962042, 156314.66732199996, -187500.02235174447, -174795.93900393715, 139358.2987020372, -185452.13317300478, 8625.448778325173, 99483.65831180314, -0.124, 0.9540000000000001, -0.094, 192.0, 252.0, 32.0, 29.0, 208.0, 253.0, 16.0, 0.0, 0.0, 0.0, 1.6961086539701717E9, 0.0, 2023-09-30 16:17:33.970
121.0, 158056.9187470578, 156163.43541901535, -187500.02235174447, -174789.009963156, 139848.5618649199, -185582.3544362014, 8896.575438568048, 99579.77081296097, -0.124, 0.9540000000000001, -0.094, 192.0, 0.0, 0.0, 0.0, 0.0, 0.0, 0.0, 0.0, 0.0, 0.0, 1.6961086540875769E9, 0.0, 2023-09-30 16:17:34.087
122.0, 158648.3012018563, 157824.3041425114, -187500.02235174447, -174937.7831742505, 140098.8566993304, -186056.83726749866, 8771.740945785159, 99906.41920643083, -0.124, 0.9540000000000001, -0.094, 192.0, 0.0, 0.0, 0.0, 0.0, 0.0, 0.0, 0.0, 0.0, 0.0, 1.6961086540877123E9, 0.0, 2023-09-30 16:17:34.087
123.0, 159544.0473609027, 158820.32022718433, -187500.02235174447, -174865.29646698196, 140300.4694343173, -186355.1436489992, 8593.597542476362, 100530.61402208974, -0.124, 0.9540000000000001, -0.094, 192.0, 0.0, 0.0, 0.0, 0.0, 0.0, 0.0, 0.0, 0.0, 0.0, 1.6961086540877542E9, 0.0, 2023-09-30 16:17:34.087
124.0, 159981.20277895962, 158501.159668107, -187500.02235174447, -174709.08012498383, 140709.1040264492, -186446.3611181213, 8757.659346778315, 100907.12915743938, -0.124, 0.9540000000000001, -0.094, 192.0, 0.0, 0.0, 0.0, 0.0, 0.0, 0.0, 0.0, 0.0, 0.0, 1.6961086540877912E9, 0.0, 2023-09-30 16:17:34.087
125.0, 160169.1138945954, 158300.48570638726, -187500.02235174447, -174727.90029381518, 141216.51097732913, -186668.00101614013, 9047.717934574835, 101020.47485357223, -0.124, 0.9540000000000001, -0.094, 192.0, 0.0, 0.0, 0.0, 0.0, 0.0, 0.0, 0.0, 0.0, 0.0, 1.6961086540878139E9, 0.0, 2023-09-30 16:17:34.087
126.0, 160757.07653249224, 159845.1924139491, -187500.02235174447, -174923.3886508213, 141517.03018153075, -187233.16487469256, 8983.076689610087, 101298.53055459626, -0.124, 0.9540000000000001, -0.094, 192.0, 0.0, 0.0, 0.0, 0.0, 0.0, 0.0, 0.0, 0.0, 0.0, 1.6961086540878415E9, 0.0, 2023-09-30 16:17:34.087
127.0, 161837.38104550613, 161342.44636803228, -187500.02235174447, -174991.8520440879, 141731.76339051288, -187500.02235174447, 8736.983983157157, 101941.12085594189, -0.124, 0.9540000000000001, -0.094, 192.0, 0.0, 0.0, 0.0, 0.0, 0.0, 0.0, 0.0, 0.0, 0.0, 1.696108654087865E9, 0.0, 2023-09-30 16:17:34.087
128.0, 162459.9441838198, 161201.07158435247, -187500.02235174447, -174880.36154274482, 142147.63994784834, -187500.02235174447, 8824.60282142196, 102428.56769902322, -0.124, 0.9540000000000001, -0.094, 192.0, 0.0, 0.0, 0.0, 0.0, 0.0, 0.0, 0.0, 0.0, 0.0, 1.6961086540879002E9, 0.0, 2023-09-30 16:17:34.087
129.0, 162704.0028815273, 160851.0656179268, -187500.02235174447, -174940.75595626308, 142693.73776838038, -187500.02235174447, 9096.08710957612, 102596.63046558267, -0.124, 0.9540000000000001, -0.094, 192.0, 0.0, 0.0, 0.0, 0.0, 0.0, 0.0, 0.0, 0.0, 0.0, 1.69610865408792E9, 0.0, 2023-09-30 16:17:34.087
130.0, 163113.17391552616, 161927.12329949418, -187500.02235174447, -175139.30650225957, 143071.3704909528, -187500.02235174447, 9099.931609622432, 102847.9758319826, -0.15, 0.964, -0.098, 192.0, 251.0, 80.0, 30.0, 32.0, 252.0, 240.0, 0.0, 0.0, 0.0, 1.6961086540879452E9, 0.0, 2023-09-30 16:17:34.087
131.0, 164124.00920677296, 163594.18345620437, -187500.02235174447, -175292.8182831786, 143305.43795888877, -187500.02235174447, 8820.423045208818, 103470.98600518538, -0.15, 0.964, -0.098, 192.0, 0.0, 0.0, 0.0, 0.0, 0.0, 0.0, 0.0, 0.0, 0.0, 1.6961086540880325E9, 0.0, 2023-09-30 16:17:34.088
132.0, 164748.71811255434, 163512.10785056447, -187500.02235174447, -175181.12661613544, 143712.12794925307, -187500.02235174447, 8851.13434209041, 104025.71159907719, -0.15, 0.964, -0.098, 192.0, 0.0, 0.0, 0.0, 0.0, 0.0, 0.0, 0.0, 0.0, 0.0, 1.696108654088087E9, 0.0, 2023-09-30 16:17:34.088
133.0, 164990.0946009272, 163079.1992639541, -187500.02235174447, -175236.13425923995, 144289.98759865615, -187500.02235174447, 9125.859633190588, 104217.75778743718, -0.15, 0.964, -0.098, 192.0, 0.0, 0.0, 0.0, 0.0, 0.0, 0.0, 0.0, 0.0, 0.0, 1.6961086540881112E9, 0.0, 2023-09-30 16:17:34.088
134.0, 165248.72663601956, 163780.95463287292, -187500.02235174447, -175450.57689554416, 144721.82330153268, -187500.02235174447, 9217.881765113088, 104390.2909028877, -0.15, 0.964, -0.098, 192.0, 0.0, 0.0, 0.0, 0.0, 0.0, 0.0, 0.0, 0.0, 0.0, 1.6961086540881467E9, 0.0, 2023-09-30 16:17:34.088
135.0, 166128.91598092509, 165527.98933124417, -187500.02235174447, -175704.64917476763, 144927.8616819217, -187500.02235174447, 8941.480093178761, 104907.0632346944, -0.15, 0.964, -0.098, 192.0, 0.0, 0.0, 0.0, 0.0, 0.0, 0.0, 0.0, 0.0, 0.0, 1.6961086540881898E9, 0.0, 2023-09-30 16:17:34.088
136.0, 166716.47628742174, 165513.50540083714, -187500.02235174447, -175651.78729913084, 145258.46633416013, -187500.02235174447, 8912.646342831415, 105441.5381481097, -0.15, 0.964, -0.098, 192.0, 0.0, 0.0, 0.0, 0.0, 0.0, 0.0, 0.0, 0.0, 0.0, 1.696108654088233E9, 0.0, 2023-09-30 16:17:34.088
137.0, 166858.92395483542, 164920.69243439348, -187500.02235174447, -175736.36630014973, 145776.42330842296, -187500.02235174447, 9161.153037685519, 105586.26569345781, -0.15, 0.964, -0.098, 192.0, 0.0, 0.0, 0.0, 0.0, 0.0, 0.0, 0.0, 0.0, 0.0, 1.6961086540882757E9, 0.0, 2023-09-30 16:17:34.088
138.0, 166908.32131008164, 165155.43045466312, -187500.02235174447, -175979.5979833124, 146206.87320314327, -187500.02235174447, 9314.038969759818, 105633.74079868088, -0.15, 0.964, -0.098, 192.0, 0.0, 0.0, 0.0, 0.0, 0.0, 0.0, 0.0, 0.0, 0.0, 1.696108654088317E9, 0.0, 2023-09-30 16:17:34.088
139.0, 167636.74231013565, 166949.8061477907, -187500.02235174447, -176337.85174344204, 146393.42086236726, -187500.02235174447, 9044.454579884361, 106012.11112882032, -0.15, 0.964, -0.098, 192.0, 0.0, 0.0, 0.0, 0.0, 0.0, 0.0, 0.0, 0.0, 0.0, 1.6961086540883877E9, 0.0, 2023-09-30 16:17:34.088
140.0, 168278.63970740317, 167257.05322707334, -187500.02235174447, -176411.07605827763, 146633.12096990598, -187500.02235174447, 8912.57928759805, 106531.49861472829, -0.158, 0.996, -0.10200000000000001, 192.0, 251.0, 16.0, 31.0, 32.0, 252.0, 208.0, 0.0, 0.0, 0.0, 1.6961086540884235E9, 0.0, 2023-09-30 16:17:34.088
141.0, 168430.18453481013, 166660.97690593923, -187500.02235174447, -176542.9289988195, 147067.39301292814, -187500.02235174447, 9095.662426431469, 106723.07541645473, -0.158, 0.996, -0.10200000000000001, 192.0, 0.0, 0.0, 0.0, 0.0, 0.0, 0.0, 0.0, 0.0, 0.0, 1.6961086540884614E9, 0.0, 2023-09-30 16:17:34.088
142.0, 168331.90391444016, 166448.8364993139, -187500.02235174447, -176797.09068502078, 147471.5125526801, -187500.02235174447, 9283.037100200308, 106766.99659430941, -0.158, 0.996, -0.10200000000000001, 192.0, 0.0, 0.0, 0.0, 0.0, 0.0, 0.0, 0.0, 0.0, 0.0, 1.69610865408849E9, 0.0, 2023-09-30 16:17:34.088
143.0, 168735.21879139173, 167874.60957462902, -187500.02235174447, -177148.95184623622, 147607.9923043242, -187500.02235174447, 9062.626548126525, 107081.95502542914, -0.158, 0.996, -0.10200000000000001, 192.0, 0.0, 0.0, 0.0, 0.0, 0.0, 0.0, 0.0, 0.0, 0.0, 1.696108654088528E9, 0.0, 2023-09-30 16:17:34.088
144.0, 169202.68317493002, 168161.02482807933, -187500.02235174447, -177192.15776826834, 147739.4652652103, -187500.02235174447, 8896.888362990423, 107610.52907830825, -0.158, 0.996, -0.10200000000000001, 192.0, 0.0, 0.0, 0.0, 0.0, 0.0, 0.0, 0.0, 0.0, 0.0, 1.6961086540885668E9, 0.0, 2023-09-30 16:17:34.088
145.0, 169155.56569761824, 167309.7362887545, -187500.02235174447, -177203.53480619608, 148072.37214712767, -187500.02235174447, 9078.116307034054, 107809.3925487271, -0.158, 0.996, -0.10200000000000001, 192.0, 0.0, 0.0, 0.0, 0.0, 0.0, 0.0, 0.0, 0.0, 0.0, 1.6961086540886016E9, 0.0, 2023-09-30 16:17:34.088
146.0, 168822.7482226787, 166648.50463253315, -187500.02235174447, -177340.19337179582, 148440.32656435092, -187500.02235174447, 9352.908653367598, 107771.77456280883, -0.158, 0.996, -0.10200000000000001, 192.0, 0.0, 0.0, 0.0, 0.0, 0.0, 0.0, 0.0, 0.0, 0.0, 1.6961086540886455E9, 0.0, 2023-09-30 16:17:34.088
147.0, 168944.36406426004, 167796.04319286862, -187500.02235174447, -177602.35698251214, 148565.0269466671, -187500.02235174447, 9253.935128919498, 107942.0725038138, -0.158, 0.996, -0.10200000000000001, 192.0, 0.0, 0.0, 0.0, 0.0, 0.0, 0.0, 0.0, 0.0, 0.0, 1.696108654088692E9, 0.0, 2023-09-30 16:17:34.088
148.0, 169475.12858809574, 168538.79166111848, -187500.02235174447, -177676.85534678167, 148627.81299684203, -187500.02235174447, 9067.119248762041, 108414.90130602138, -0.158, 0.996, -0.10200000000000001, 192.0, 0.0, 0.0, 0.0, 0.0, 0.0, 0.0, 0.0, 0.0, 0.0, 1.6961086540887368E9, 0.0, 2023-09-30 16:17:34.088
149.0, 169536.7746993035, 167872.35204843903, -187500.02235174447, -177632.9788724159, 148891.1836017589, -187500.02235174447, 9235.137311832585, 108651.15924491397, -0.158, 0.996, -0.10200000000000001, 192.0, 0.0, 0.0, 0.0, 0.0, 0.0, 0.0, 0.0, 0.0, 0.0, 1.696108654557554E9, 0.0, 2023-09-30 16:17:34.557
150.0, 169276.19806244352, 167136.57732445924, -187500.02235174447, -177742.43536501355, 149239.35672513925, -187500.02235174447, 9554.99077498803, 108595.14577330898, -0.158, 1.038, -0.092, 192.0, 251.0, 16.0, 32.0, 112.0, 253.0, 32.0, 0.0, 0.0, 0.0, 1.696108654557582E9, 0.0, 2023-09-30 16:17:34.557
151.0, 169291.26313820638, 167988.2905469287, -187500.02235174447, -177982.62721093025, 149361.1513806762, -187500.02235174447, 9542.786722515431, 108660.45757060738, -0.158, 1.038, -0.092, 192.0, 0.0, 0.0, 0.0, 0.0, 0.0, 0.0, 0.0, 0.0, 0.0, 1.696108654557596E9, 0.0, 2023-09-30 16:17:34.557
152.0, 169859.6009444715, 169009.45234411387, -187500.02235174447, -178115.30716601698, 149365.46526735608, -187500.02235174447, 9318.88929830662, 109066.94639527159, -0.158, 1.038, -0.092, 192.0, 0.0, 0.0, 0.0, 0.0, 0.0, 0.0, 0.0, 0.0, 0.0, 1.696108654557608E9, 0.0, 2023-09-30 16:17:34.557
153.0, 169974.10893131603, 168366.5938218348, -187500.02235174447, -178030.05761266442, 149544.9497753322, -187500.02235174447, 9444.930785290097, 109331.09931124441, -0.158, 1.038, -0.092, 192.0, 0.0, 0.0, 0.0, 0.0, 0.0, 0.0, 0.0, 0.0, 0.0, 1.6961086545576196E9, 0.0, 2023-09-30 16:17:34.557
154.0, 169726.78687891804, 167510.3431952409, -187500.02235174447, -178091.6813721277, 149868.5806833006, -187500.02235174447, 9799.451804095723, 109272.22481634913, -0.158, 1.038, -0.092, 192.0, 0.0, 0.0, 0.0, 0.0, 0.0, 0.0, 0.0, 0.0, 0.0, 1.6961086545576313E9, 0.0, 2023-09-30 16:17:34.557
155.0, 169634.80945048446, 168047.25444880183, -187500.02235174447, -178284.84514771047, 150029.40148465653, -187500.02235174447, 9915.34559909649, 109265.295775568, -0.158, 1.038, -0.092, 192.0, 0.0, 0.0, 0.0, 0.0, 0.0, 0.0, 0.0, 0.0, 0.0, 1.6961086545576427E9, 0.0, 2023-09-30 16:17:34.557
156.0, 170202.85668407162, 169350.53996450186, -187500.02235174447, -178474.00796103574, 150015.3645891386, -187500.02235174447, 9707.250858217581, 109609.46793669081, -0.158, 1.038, -0.092, 192.0, 0.0, 0.0, 0.0, 0.0, 0.0, 0.0, 0.0, 0.0, 0.0, 1.6961086545576544E9, 0.0, 2023-09-30 16:17:34.557
157.0, 170392.220663097, 168837.9027054194, -187500.02235174447, -178369.848831874, 150148.71509655894, -187500.02235174447, 9805.84440300994, 109900.19707682099, -0.158, 1.038, -0.092, 192.0, 0.0, 0.0, 0.0, 0.0, 0.0, 0.0, 0.0, 0.0, 0.0, 1.696108654557666E9, 0.0, 2023-09-30 16:17:34.557
158.0, 170152.162927647, 167895.41904871693, -187500.02235174447, -178396.04507637562, 150456.8115421309, -187500.02235174447, 10176.212808634378, 109829.9231922535, -0.158, 1.038, -0.092, 192.0, 0.0, 0.0, 0.0, 0.0, 0.0, 0.0, 0.0, 0.0, 0.0, 1.6961086545576773E9, 0.0, 2023-09-30 16:17:34.557
159.0, 169920.28593066765, 168030.93767534944, -187500.02235174447, -178564.21960165736, 150643.9626984552, -187500.02235174447, 10389.29198852682, 109721.58428687863, -0.158, 1.038, -0.092, 192.0, 0.0, 0.0, 0.0, 0.0, 0.0, 0.0, 0.0, 0.0, 0.0, 1.6961086545576887E9, 0.0, 2023-09-30 16:17:34.557
160.0, 170437.66175957464, 169520.07794619538, -187500.02235174447, -178816.95077621352, 150620.6051254994, -187500.02235174447, 10194.720053043373, 109962.46903687347, -0.158, 1.038, -0.092, 192.0, 0.0, 0.0, 0.0, 0.0, 0.0, 0.0, 0.0, 0.0, 0.0, 1.6961086545577E9, 0.0, 2023-09-30 16:17:34.557
161.0, 170711.2918151965, 169239.4964980479, -187500.02235174447, -178754.36589173865, 150694.6788066243, -187500.02235174447, 10211.014474751291, 110267.79386613297, -0.14200000000000002, 1.026, -0.066, 192.0, 251.0, 144.0, 32.0, 16.0, 253.0, 240.0, 0.0, 0.0, 0.0, 1.6961086545577116E9, 0.0, 2023-09-30 16:17:34.557
162.0, 170460.84051857478, 168235.27732315985, -187500.02235174447, -178770.01211285737, 150962.9891470658, -187500.02235174447, 10525.101187837266, 110216.7648335415, -0.14200000000000002, 1.026, -0.066, 192.0, 0.0, 0.0, 0.0, 0.0, 0.0, 0.0, 0.0, 0.0, 0.0, 1.696108654557723E9, 0.0, 2023-09-30 16:17:34.557
163.0, 170071.31666795214, 167967.45872109637, -187500.02235174447, -178925.44614379958, 151176.67182405852, -187500.02235174447, 10767.595263432893, 110038.0179331324, -0.14200000000000002, 1.026, -0.066, 192.0, 0.0, 0.0, 0.0, 0.0, 0.0, 0.0, 0.0, 0.0, 0.0, 1.6961086545577345E9, 0.0, 2023-09-30 16:17:34.557
164.0, 170442.981474755, 169450.36285523928, -187500.02235174447, -179210.78851351602, 151175.0848502022, -187500.02235174447, 10574.006804705477, 110175.83878944383, -0.14200000000000002, 1.026, -0.066, 192.0, 0.0, 0.0, 0.0, 0.0, 0.0, 0.0, 0.0, 0.0, 0.0, 1.6961086545577457E9, 0.0, 2023-09-30 16:17:34.557
165.0, 170801.05642092903, 169490.59599525883, -187500.02235174447, -179176.47858577713, 151228.21494677247, -187500.02235174447, 10510.527850452407, 110500.2296567237, -0.14200000000000002, 1.026, -0.066, 192.0, 0.0, 0.0, 0.0, 0.0, 0.0, 0.0, 0.0, 0.0, 0.0, 1.696108654557757E9, 0.0, 2023-09-30 16:17:34.557
166.0, 170576.82372055337, 168459.73354098006, -187500.02235174447, -179144.4932394616, 151458.84024606232, -187500.02235174447, 10782.503876984581, 110484.06934548252, -0.14200000000000002, 1.026, -0.066, 192.0, 0.0, 0.0, 0.0, 0.0, 0.0, 0.0, 0.0, 0.0, 0.0, 1.696108654557768E9, 0.0, 2023-09-30 16:17:34.557
167.0, 170109.38168875955, 167829.36964385147, -187500.02235174447, -179246.7077668557, 151672.63468177733, -187500.02235174447, 11078.709194506311, 110282.41190700674, -0.14200000000000002, 1.026, -0.066, 192.0, 0.0, 0.0, 0.0, 0.0, 0.0, 0.0, 0.0, 0.0, 0.0, 1.6961086545577793E9, 0.0, 2023-09-30 16:17:34.557
168.0, 170304.06538296526, 169131.2246479064, -187500.02235174447, -179508.84902582754, 151645.6337744753, -187500.02235174447, 10944.799893474566, 110334.78204426552, -0.14200000000000002, 1.026, -0.066, 192.0, 0.0, 0.0, 0.0, 0.0, 0.0, 0.0, 0.0, 0.0, 0.0, 1.6961086545577905E9, 0.0, 2023-09-30 16:17:34.557
169.0, 170709.90600704026, 169477.27435556345, -187500.02235174447, -179506.1668164929, 151610.83210835842, -187500.02235174447, 10813.639857010825, 110662.54802495815, -0.14200000000000002, 1.026, -0.066, 192.0, 0.0, 0.0, 0.0, 0.0, 0.0, 0.0, 0.0, 0.0, 0.0, 1.6961086545578022E9, 0.0, 2023-09-30 16:17:34.557
170.0, 170479.50422519498, 168390.73370584653, -187500.02235174447, -179396.2409372617, 151764.23213055517, -187500.02235174447, 11038.408999253394, 110708.41380458043, -0.14200000000000002, 1.026, -0.066, 192.0, 0.0, 0.0, 0.0, 0.0, 0.0, 0.0, 0.0, 0.0, 0.0, 1.696108654557814E9, 0.0, 2023-09-30 16:17:34.557
171.0, 169868.854566676, 167414.54361850544, -187500.02235174447, -179429.79090568912, 151958.04410672715, -187500.02235174447, 11362.308128155248, 110486.50568562814, -0.134, 0.978, -0.04, 192.0, 251.0, 208.0, 30.0, 144.0, 254.0, 192.0, 0.0, 0.0, 0.0, 1.696108654557825E9, 0.0, 2023-09-30 16:17:34.557
172.0, 169766.95296370424, 168362.45874911055, -187500.02235174447, -179640.74666985832, 151919.1967748638, -187500.02235174447, 11295.498763978334, 110435.34254256995, -0.134, 0.978, -0.04, 192.0, 0.0, 0.0, 0.0, 0.0, 0.0, 0.0, 0.0, 0.0, 0.0, 1.6961086545578368E9, 0.0, 2023-09-30 16:17:34.557
173.0, 170179.52146286028, 169038.42020492797, -187500.02235174447, -179667.43465273795, 151820.29030564908, -187500.02235174447, 11110.895706521953, 110729.17857517941, -0.134, 0.978, -0.04, 192.0, 0.0, 0.0, 0.0, 0.0, 0.0, 0.0, 0.0, 0.0, 0.0, 1.696108654557848E9, 0.0, 2023-09-30 16:17:34.557
174.0, 170007.50243753224, 168026.7578991363, -187500.02235174447, -179482.18339469237, 151922.08014989857, -187500.02235174447, 11304.841793160653, 110836.66811426499, -0.134, 0.978, -0.04, 192.0, 0.0, 0.0, 0.0, 0.0, 0.0, 0.0, 0.0, 0.0, 0.0, 1.6961086545578592E9, 0.0, 2023-09-30 16:17:34.557
175.0, 169412.99073850998, 166884.7849231702, -187500.02235174447, -179434.9094551694, 152114.88629757005, -187500.02235174447, 11673.846742373318, 110631.25558272071, -0.134, 0.978, -0.04, 192.0, 0.0, 0.0, 0.0, 0.0, 0.0, 0.0, 0.0, 0.0, 0.0, 1.6961086545578704E9, 0.0, 2023-09-30 16:17:34.557
176.0, 169134.51035434133, 167457.39191262628, -187500.02235174447, -179560.5262590082, 152094.41209964897, -187500.02235174447, 11718.304362094923, 110502.9342178028, -0.134, 0.978, -0.04, 192.0, 0.0, 0.0, 0.0, 0.0, 0.0, 0.0, 0.0, 0.0, 0.0, 1.696108654557882E9, 0.0, 2023-09-30 16:17:34.557
177.0, 169527.25285616552, 168470.59648878535, -187500.02235174447, -179626.06157375118, 151946.68942054384, -187500.02235174447, 11502.185344956559, 110741.36027590756, -0.134, 0.978, -0.04, 192.0, 0.0, 0.0, 0.0, 0.0, 0.0, 0.0, 0.0, 0.0, 0.0, 1.6961086545578935E9, 0.0, 2023-09-30 16:17:34.557
178.0, 169405.68171807312, 167586.58499557796, -187500.02235174447, -179407.30505076709, 151959.04993522764, -187500.02235174447, 11633.770064564951, 110881.34925143115, -0.134, 0.978, -0.04, 192.0, 0.0, 0.0, 0.0, 0.0, 0.0, 0.0, 0.0, 0.0, 0.0, 1.6961086545579052E9, 0.0, 2023-09-30 16:17:34.557
179.0, 168816.71325167577, 166361.4188267492, -187500.02235174447, -179325.40825908285, 152099.82122180716, -187500.02235174447, 11996.1812491633, 110658.39060048945, -0.134, 0.978, -0.04, 192.0, 0.0, 0.0, 0.0, 0.0, 0.0, 0.0, 0.0, 0.0, 0.0, 1.6961086545579166E9, 0.0, 2023-09-30 16:17:34.557
180.0, 168379.93781327462, 166531.806174732, -187500.02235174447, -179416.089286338, 152083.9514832439, -187500.02235174447, 12113.080872664557, 110425.97716164317, -0.134, 0.978, -0.04, 192.0, 0.0, 0.0, 0.0, 0.0, 0.0, 0.0, 0.0, 0.0, 0.0, 1.696108654557928E9, 0.0, 2023-09-30 16:17:34.557
181.0, 168778.5364721461, 167808.24724534122, -187500.02235174447, -179563.00730264274, 151913.2512108387, -187500.02235174447, 11860.05912543048, 110561.96517490926, -0.11, 0.9580000000000001, -0.026000000000000002, 192.0, 252.0, 144.0, 29.0, 240.0, 255.0, 48.0, 0.0, 0.0, 0.0, 1.6961086545579393E9, 0.0, 2023-09-30 16:17:34.557
182.0, 168796.52962643263, 167173.14477838812, -187500.02235174447, -179388.28371623563, 151879.34361450002, -187500.02235174447, 11888.177619955257, 110710.80544123716, -0.11, 0.9580000000000001, -0.026000000000000002, 192.0, 0.0, 0.0, 0.0, 0.0, 0.0, 0.0, 0.0, 0.0, 0.0, 1.6961086545579507E9, 0.0, 2023-09-30 16:17:34.557
183.0, 168268.2684979759, 165920.15068771254, -187500.02235174447, -179318.59097702397, 151993.04693854417, -187500.02235174447, 12188.719175901315, 110486.19276120578, -0.11, 0.9580000000000001, -0.026000000000000002, 192.0, 0.0, 0.0, 0.0, 0.0, 0.0, 0.0, 0.0, 0.0, 0.0, 1.6961086545579624E9, 0.0, 2023-09-30 16:17:34.557
184.0, 167733.81593630504, 165719.18615331486, -187500.02235174447, -179389.11073078046, 151986.00613904075, -187500.02235174447, 12357.743067472347, 110184.86889420378, -0.11, 0.9580000000000001, -0.026000000000000002, 192.0, 0.0, 0.0, 0.0, 0.0, 0.0, 0.0, 0.0, 0.0, 0.0, 1.6961086545579736E9, 0.0, 2023-09-30 16:17:34.557
185.0, 168094.5730918137, 167184.4547610825, -187500.02235174447, -179587.10248316557, 151756.56548220702, -187500.02235174447, 12097.434651545842, 110249.15251125724, -0.11, 0.9580000000000001, -0.026000000000000002, 192.0, 0.0, 0.0, 0.0, 0.0, 0.0, 0.0, 0.0, 0.0, 0.0, 1.6961086545579848E9, 0.0, 2023-09-30 16:17:34.557
186.0, 168275.9574980685, 166908.96951067087, -187500.02235174447, -179447.31467334207, 151608.66398914624, -187500.02235174447, 12038.157825250368, 110456.50964456913, -0.11, 0.9580000000000001, -0.026000000000000002, 192.0, 0.0, 0.0, 0.0, 0.0, 0.0, 0.0, 0.0, 0.0, 0.0, 1.696108654557996E9, 0.0, 2023-09-30 16:17:34.557
187.0, 167850.112062706, 165702.22117927327, -187500.02235174447, -179343.51317209163, 151638.8388441609, -187500.02235174447, 12303.294217979219, 110323.18148889321, -0.11, 0.9580000000000001, -0.026000000000000002, 192.0, 0.0, 0.0, 0.0, 0.0, 0.0, 0.0, 0.0, 0.0, 0.0, 1.6961086545580072E9, 0.0, 2023-09-30 16:17:34.558
188.0, 167273.8840906482, 165159.58787913178, -187500.02235174447, -179369.4411956598, 151627.8417858889, -187500.02235174447, 12540.66974409458, 110059.85558746524, -0.11, 0.9580000000000001, -0.026000000000000002, 192.0, 0.0, 0.0, 0.0, 0.0, 0.0, 0.0, 0.0, 0.0, 0.0, 1.6961086545580184E9, 0.0, 2023-09-30 16:17:34.558
189.0, 167526.50350648208, 166591.10535277193, -187500.02235174447, -179584.28616336422, 151383.80543992584, -187500.02235174447, 12318.33694199764, 110097.51827687243, -0.11, 0.9580000000000001, -0.026000000000000002, 192.0, 0.0, 0.0, 0.0, 0.0, 0.0, 0.0, 0.0, 0.0, 0.0, 1.69610865455803E9, 0.0, 2023-09-30 16:17:34.558
190.0, 167851.18494643987, 166689.11775220846, -187500.02235174447, -179498.9695547783, 151191.82630679922, -187500.02235174447, 12180.493733941763, 110363.88401554633, -0.11, 0.9580000000000001, -0.026000000000000002, 192.0, 0.0, 0.0, 0.0, 0.0, 0.0, 0.0, 0.0, 0.0, 0.0, 1.696108654558041E9, 0.0, 2023-09-30 16:17:34.558
191.0, 167533.6560647078, 165554.8784798239, -187500.02235174447, -179357.9300472653, 151231.85828111868, -187500.02235174447, 12405.844021540168, 110314.9336951892, -0.098, 0.9540000000000001, -0.014, 192.0, 252.0, 240.0, 29.0, 208.0, 255.0, 144.0, 0.0, 0.0, 0.0, 1.6961086545580523E9, 0.0, 2023-09-30 16:17:34.558
192.0, 166958.38921766155, 164784.1903310049, -187500.02235174447, -179357.9300472653, 151313.2633344249, -187500.02235174447, 12691.678129634634, 110038.44261627705, -0.098, 0.9540000000000001, -0.014, 192.0, 0.0, 0.0, 0.0, 0.0, 0.0, 0.0, 0.0, 0.0, 0.0, 1.6961086545580635E9, 0.0, 2023-09-30 16:17:34.558
193.0, 167110.31402472427, 166114.96849238497, -187500.02235174447, -179585.89548896498, 151174.14607693508, -187500.02235174447, 12530.678514323059, 109977.93644403655, -0.098, 0.9540000000000001, -0.014, 192.0, 0.0, 0.0, 0.0, 0.0, 0.0, 0.0, 0.0, 0.0, 0.0, 1.6961086545580752E9, 0.0, 2023-09-30 16:17:34.558
194.0, 167616.33516744795, 166710.77659258564, -187500.02235174447, -179603.8439397626, 151037.53221482423, -187500.02235174447, 12315.542973940728, 110227.29250517995, -0.098, 0.9540000000000001, -0.014, 192.0, 0.0, 0.0, 0.0, 0.0, 0.0, 0.0, 0.0, 0.0, 0.0, 1.6961086545580869E9, 0.0, 2023-09-30 16:17:34.558
195.0, 167475.8321018019, 165720.12492658198, -187500.02235174447, -179470.5604875756, 151150.40852432355, -187500.02235174447, 12482.175228855041, 110223.82798478937, -0.098, 0.9540000000000001, -0.014, 192.0, 0.0, 0.0, 0.0, 0.0, 0.0, 0.0, 0.0, 0.0, 0.0, 1.696108654558098E9, 0.0, 2023-09-30 16:17:34.558
196.0, 166973.02961027977, 164789.33123222963, -187500.02235174447, -179479.0541504686, 151359.5761489363, -187500.02235174447, 12789.95875000462, 109935.53518480483, -0.098, 0.9540000000000001, -0.014, 192.0, 0.0, 0.0, 0.0, 0.0, 0.0, 0.0, 0.0, 0.0, 0.0, 1.6961086545581102E9, 0.0, 2023-09-30 16:17:34.558
197.0, 167012.32397703218, 165858.45987301588, -187500.02235174447, -179711.17701663697, 151344.13109351767, -187500.02235174447, 12711.839403133323, 109790.04768014523, -0.098, 0.9540000000000001, -0.014, 192.0, 0.0, 0.0, 0.0, 0.0, 0.0, 0.0, 0.0, 0.0, 0.0, 1.6961086545581229E9, 0.0, 2023-09-30 16:17:34.558
198.0, 167667.78888318408, 166904.1415338685, -187500.02235174447, -179836.3467855867, 151238.697914922, -187500.02235174447, 12448.379391238617, 110013.22984853147, -0.098, 0.9540000000000001, -0.014, 192.0, 0.0, 0.0, 0.0, 0.0, 0.0, 0.0, 0.0, 0.0, 0.0, 1.6961086545581343E9, 0.0, 2023-09-30 16:17:34.558
199.0, 167721.81304953256, 166125.74203321245, -187500.02235174447, -179718.86601672962, 151318.38188390518, -187500.02235174447, 12561.680383882569, 110092.53383785891, -0.098, 0.9540000000000001, -0.014, 192.0, 0.0, 0.0, 0.0, 0.0, 0.0, 0.0, 0.0, 0.0, 0.0, 1.6961086545581455E9, 0.0, 2023-09-30 16:17:34.558
200.0, 167336.96071350106, 165165.48873966798, -187500.02235174447, -179738.6249588281, 151521.4251305372, -187500.02235174447, 12884.685443006212, 109857.99698328937, -0.098, 0.9540000000000001, -0.014, 192.0, 0.0, 0.0, 0.0, 0.0, 0.0, 0.0, 0.0, 0.0, 0.0, 1.6961086545581565E9, 0.0, 2023-09-30 16:17:34.558
201.0, 167315.16776265716, 165957.25458350833, -187500.02235174447, -179969.85375521824, 151552.00231695204, -187500.02235174447, 12905.047882204997, 109690.58241731912, -0.098, 0.9540000000000001, -0.014, 192.0, 0.0, 0.0, 0.0, 0.0, 0.0, 0.0, 0.0, 0.0, 0.0, 1.6961086545581682E9, 0.0, 2023-09-30 16:17:34.558
202.0, 168118.42240314753, 167495.83691308938, -187500.02235174447, -180216.035868649, 151453.87815879323, -187500.02235174447, 12620.666637500124, 109917.8996584296, -0.074, 0.9540000000000001, -0.01, 192.0, 253.0, 176.0, 29.0, 208.0, 255.0, 176.0, 0.0, 0.0, 0.0, 1.6961086545581796E9, 0.0, 2023-09-30 16:17:34.558
203.0, 168421.53440970593, 167073.03131497282, -187500.02235174447, -180145.76198408153, 151535.1714533772, -187500.02235174447, 12682.98330104152, 110109.36470143375, -0.074, 0.9540000000000001, -0.01, 192.0, 0.0, 0.0, 0.0, 0.0, 0.0, 0.0, 0.0, 0.0, 0.0, 1.6961086545581908E9, 0.0, 2023-09-30 16:17:34.558
204.0, 168216.9488927065, 166187.83517930927, -187500.02235174447, -180190.5325282255, 151785.4215842988, -187500.02235174447, 13006.077767142984, 109956.85874901518, -0.074, 0.9540000000000001, -0.01, 192.0, 0.0, 0.0, 0.0, 0.0, 0.0, 0.0, 0.0, 0.0, 0.0, 1.6961086545582025E9, 0.0, 2023-09-30 16:17:34.558
205.0, 168165.56223220375, 166654.47254830273, -187500.02235174447, -180417.40273444686, 151921.2978388426, -187500.02235174447, 13121.144547598906, 109794.69684299194, -0.074, 0.9540000000000001, -0.01, 192.0, 0.0, 0.0, 0.0, 0.0, 0.0, 0.0, 0.0, 0.0, 0.0, 1.696108654558214E9, 0.0, 2023-09-30 16:17:34.558
206.0, 168997.20358815236, 168455.44200604464, -187500.02235174447, -180753.23769488785, 151880.81882963405, -187500.02235174447, 12830.326000490904, 110023.75752016992, -0.074, 0.9540000000000001, -0.01, 192.0, 0.0, 0.0, 0.0, 0.0, 0.0, 0.0, 0.0, 0.0, 0.0, 1.6961086545582256E9, 0.0, 2023-09-30 16:17:34.558
207.0, 169432.235590486, 168252.0634832458, -187500.02235174447, -180718.12310434857, 151969.0188132547, -187500.02235174447, 12815.752663106045, 110344.77327403704, -0.074, 0.9540000000000001, -0.01, 192.0, 0.0, 0.0, 0.0, 0.0, 0.0, 0.0, 0.0, 0.0, 0.0, 1.6961086545582366E9, 0.0, 2023-09-30 16:17:34.558
208.0, 169251.32057086474, 167274.50993949294, -187500.02235174447, -180727.33202306414, 152235.25044146186, -187500.02235174447, 13120.317533054058, 110311.82680270993, -0.074, 0.9540000000000001, -0.01, 192.0, 0.0, 0.0, 0.0, 0.0, 0.0, 0.0, 0.0, 0.0, 0.0, 1.6961086545582585E9, 0.0, 2023-09-30 16:17:34.558
209.0, 169010.50287610327, 167244.9832850675, -187500.02235174447, -180891.12560643264, 152417.79713842834, -187500.02235174447, 13324.16544248646, 110157.13037933475, -0.074, 0.9540000000000001, -0.01, 192.0, 0.0, 0.0, 0.0, 0.0, 0.0, 0.0, 0.0, 0.0, 0.0, 1.6961086545582712E9, 0.0, 2023-09-30 16:17:34.558
210.0, 169695.4050297028, 169071.27726927726, -187500.02235174447, -181241.26568332504, 152389.00809156994, -187500.02235174447, 13069.19909348477, 110324.7461110051, -0.074, 0.9540000000000001, -0.01, 192.0, 0.0, 0.0, 0.0, 0.0, 0.0, 0.0, 0.0, 0.0, 0.0, 1.6961086545582843E9, 0.0, 2023-09-30 16:17:34.558
211.0, 170245.54851598127, 169181.56077641973, -187500.02235174447, -181234.00136637705, 152443.38988582967, -187500.02235174447, 12986.698804700232, 110686.30792931413, -0.074, 0.9540000000000001, -0.01, 192.0, 0.0, 0.0, 0.0, 0.0, 0.0, 0.0, 0.0, 0.0, 0.0, 1.696108654558296E9, 0.0, 2023-09-30 16:17:34.558
212.0, 170093.66841240745, 168206.6447385126, -187500.02235174447, -181204.40765671822, 152694.35527257388, -187500.02235174447, 13251.544624751166, 110723.56828732113, -0.06, 0.9460000000000001, -0.018000000000000002, 192.0, 254.0, 32.0, 29.0, 144.0, 255.0, 112.0, 0.0, 0.0, 0.0, 1.6961086545583072E9, 0.0, 2023-09-30 16:17:34.558
213.0, 169745.16001286032, 167821.18890538084, -187500.02235174447, -181321.6872598752, 152940.98442089374, -187500.02235174447, 13511.473061021932, 110578.72898325074, -0.06, 0.9460000000000001, -0.018000000000000002, 192.0, 0.0, 0.0, 0.0, 0.0, 0.0, 0.0, 0.0, 0.0, 0.0, 1.6961086545583184E9, 0.0, 2023-09-30 16:17:34.558
214.0, 170244.94501888097, 169549.24697270954, -187500.02235174447, -181684.41136889593, 152974.3108718766, -187500.02235174447, 13296.583389828611, 110690.15242936045, -0.06, 0.9460000000000001, -0.018000000000000002, 192.0, 0.0, 0.0, 0.0, 0.0, 0.0, 0.0, 0.0, 0.0, 0.0, 1.6961086545583293E9, 0.0, 2023-09-30 16:17:34.558
215.0, 170911.83166644952, 170053.90465902147, -187500.02235174447, -181757.38981454252, 153034.43706446138, -187500.02235174447, 13126.710131968277, 111085.0183469079, -0.06, 0.9460000000000001, -0.018000000000000002, 192.0, 0.0, 0.0, 0.0, 0.0, 0.0, 0.0, 0.0, 0.0, 0.0, 1.6961086545583413E9, 0.0, 2023-09-30 16:17:34.558
216.0, 170875.1301020539, 169141.66291256703, -187500.02235174447, -181718.58718616812, 153285.04482329427, -187500.02235174447, 13333.35200945759, 111197.71584245157, -0.06, 0.9460000000000001, -0.018000000000000002, 192.0, 0.0, 0.0, 0.0, 0.0, 0.0, 0.0, 0.0, 0.0, 0.0, 1.6961086545583527E9, 0.0, 2023-09-30 16:17:34.558
217.0, 170510.75196394348, 168478.79957900042, -187500.02235174447, -181824.2662339528, 153558.02667832695, -187500.02235174447, 13621.130719319668, 111058.19625356153, -0.06, 0.9460000000000001, -0.018000000000000002, 192.0, 0.0, 0.0, 0.0, 0.0, 0.0, 0.0, 0.0, 0.0, 0.0, 1.696108654558364E9, 0.0, 2023-09-30 16:17:34.558
218.0, 170865.4294449603, 169992.19149258037, -187500.02235174447, -182182.22942140454, 153612.90021096473, -187500.02235174447, 13472.335156480689, 111110.20876290904, -0.06, 0.9460000000000001, -0.018000000000000002, 192.0, 0.0, 0.0, 0.0, 0.0, 0.0, 0.0, 0.0, 0.0, 0.0, 1.6961086545583751E9, 0.0, 2023-09-30 16:17:34.558
219.0, 171662.023265603, 170961.96662926278, -187500.02235174447, -182332.99193775558, 153639.69995256662, -187500.02235174447, 13242.402761268946, 111532.76849183661, -0.06, 0.9460000000000001, -0.018000000000000002, 192.0, 0.0, 0.0, 0.0, 0.0, 0.0, 0.0, 0.0, 0.0, 0.0, 1.6961086545583863E9, 0.0, 2023-09-30 16:17:34.558
220.0, 171751.25142946857, 170171.85481451213, -187500.02235174447, -182254.20203855063, 153857.5177022836, -187500.02235174447, 13410.59963829513, 111760.93509923639, -0.06, 0.9460000000000001, -0.018000000000000002, 192.0, 0.0, 0.0, 0.0, 0.0, 0.0, 0.0, 0.0, 0.0, 0.0, 1.6961086545583975E9, 0.0, 2023-09-30 16:17:34.558
221.0, 171409.04622185783, 169344.50499349894, -187500.02235174447, -182305.49929207558, 154160.96498500885, -187500.02235174447, 13738.924412599137, 111688.78366813465, -0.06, 0.9460000000000001, -0.018000000000000002, 192.0, 0.0, 0.0, 0.0, 0.0, 0.0, 0.0, 0.0, 0.0, 0.0, 1.6961086545584092E9, 0.0, 2023-09-30 16:17:34.558
222.0, 171604.64633758622, 170532.81313572088, -187500.02235174447, -182595.96021127226, 154287.78878304825, -187500.02235174447, 13701.731109825507, 111728.81564245411, -0.056, 0.93, -0.034, 192.0, 254.0, 64.0, 29.0, 16.0, 254.0, 240.0, 0.0, 0.0, 0.0, 1.6961086545584207E9, 0.0, 2023-09-30 16:17:34.558
223.0, 172492.72584828446, 171903.06447780904, -187500.02235174447, -182804.83726320713, 154335.15212954904, -187500.02235174447, 13443.054371244238, 112168.2732901899, -0.056, 0.93, -0.034, 192.0, 0.0, 0.0, 0.0, 0.0, 0.0, 0.0, 0.0, 0.0, 0.0, 1.6961086545584316E9, 0.0, 2023-09-30 16:17:34.558
224.0, 172688.4153709907, 171258.79779562925, -187500.02235174447, -182703.114474191, 154551.04762924285, -187500.02235174447, 13558.188206933524, 112490.29487255751, -0.056, 0.93, -0.034, 192.0, 0.0, 0.0, 0.0, 0.0, 0.0, 0.0, 0.0, 0.0, 0.0, 1.6961086545584433E9, 0.0, 2023-09-30 16:17:34.558
225.0, 172361.29759088726, 170288.93325196902, -187500.02235174447, -182722.80636105614, 154869.76115343109, -187500.02235174447, 13893.307911551943, 112456.18611051871, -0.056, 0.93, -0.034, 192.0, 0.0, 0.0, 0.0, 0.0, 0.0, 0.0, 0.0, 0.0, 0.0, 1.6961086545584548E9, 0.0, 2023-09-30 16:17:34.558
226.0, 172353.6309425391, 171015.63316769997, -187500.02235174447, -182956.60560805866, 155025.9998471737, -187500.02235174447, 13958.28443268352, 112443.0879882679, -0.056, 0.93, -0.034, 192.0, 0.0, 0.0, 0.0, 0.0, 0.0, 0.0, 0.0, 0.0, 0.0, 1.6961086545584662E9, 0.0, 2023-09-30 16:17:34.558
227.0, 173228.81349668663, 172717.09265912685, -187500.02235174447, -183228.11224795727, 155043.97064971575, -187500.02235174447, 13694.533848110897, 112838.9373825714, -0.056, 0.93, -0.034, 192.0, 0.0, 0.0, 0.0, 0.0, 0.0, 0.0, 0.0, 0.0, 0.0, 1.6961086545584772E9, 0.0, 2023-09-30 16:17:34.558
228.0, 173572.0692362868, 172313.33074728618, -187500.02235174447, -183117.6722786036, 155207.45130866187, -187500.02235174447, 13769.188674591624, 113252.91404162813, -0.056, 0.93, -0.034, 192.0, 0.0, 0.0, 0.0, 0.0, 0.0, 0.0, 0.0, 0.0, 0.0, 1.6961086545584884E9, 0.0, 2023-09-30 16:17:34.558
229.0, 173305.83760807963, 171287.2739180653, -187500.02235174447, -183099.25444117244, 155507.4117192521, -187500.02235174447, 14114.947809570767, 113296.991681694, -0.056, 0.93, -0.034, 192.0, 0.0, 0.0, 0.0, 0.0, 0.0, 0.0, 0.0, 0.0, 0.0, 1.6961086545584996E9, 0.0, 2023-09-30 16:17:34.558
230.0, 173102.79436144762, 171530.50560122795, -187500.02235174447, -183284.59510619583, 155675.96622418956, -187500.02235174447, 14270.29243353515, 113260.82655916532, -0.056, 0.93, -0.034, 192.0, 0.0, 0.0, 0.0, 0.0, 0.0, 0.0, 0.0, 0.0, 0.0, 1.6961086545585108E9, 0.0, 2023-09-30 16:17:34.558
231.0, 173813.8257043154, 173307.82691333615, -187500.02235174447, -183645.6428343824, 155618.0752060503, -187500.02235174447, 13973.953005546691, 113561.14459766682, -0.056, 0.93, -0.034, 192.0, 0.0, 0.0, 0.0, 0.0, 0.0, 0.0, 0.0, 0.0, 0.0, 1.6961086545585225E9, 0.0, 2023-09-30 16:17:34.558
232.0, 174160.61301953948, 173043.38342468542, -187500.02235174447, -183635.71865984425, 155629.40754048916, -187500.02235174447, 13903.924990168214, 113941.37012259605, -0.056, 0.93, -0.034, 192.0, 0.0, 0.0, 0.0, 0.0, 0.0, 0.0, 0.0, 0.0, 0.0, 1.696108654558534E9, 0.0, 2023-09-30 16:17:34.558
233.0, 173814.67507060472, 171870.0285995041, -187500.02235174447, -183666.63112242596, 155790.80948720092, -187500.02235174447, 14141.345219772486, 113922.4828985313, -0.052000000000000005, 0.936, -0.058, 192.0, 254.0, 96.0, 29.0, 64.0, 254.0, 48.0, 0.0, 0.0, 0.0, 1.6961086545585449E9, 0.0, 2023-09-30 16:17:34.558
234.0, 173371.6634955005, 171576.4384360836, -187500.02235174447, -183866.47806960085, 155875.85787485336, -187500.02235174447, 14300.623750761004, 113741.79139635462, -0.052000000000000005, 0.936, -0.058, 192.0, 0.0, 0.0, 0.0, 0.0, 0.0, 0.0, 0.0, 0.0, 0.0, 1.6961086545585563E9, 0.0, 2023-09-30 16:17:34.558
235.0, 173870.0403416205, 173290.5937183611, -187500.02235174447, -184284.00865602598, 155749.36935298078, -187500.02235174447, 13993.935465089735, 113870.00100255026, -0.052000000000000005, 0.936, -0.058, 192.0, 0.0, 0.0, 0.0, 0.0, 0.0, 0.0, 0.0, 0.0, 0.0, 1.6961086545585675E9, 0.0, 2023-09-30 16:17:34.558
236.0, 174267.36495105803, 173380.0230479268, -187500.02235174447, -184328.17570306966, 155688.5502563179, -187500.02235174447, 13837.875585302781, 114237.32957092876, -0.052000000000000005, 0.936, -0.058, 192.0, 0.0, 0.0, 0.0, 0.0, 0.0, 0.0, 0.0, 0.0, 0.0, 1.6961086545585787E9, 0.0, 2023-09-30 16:17:34.558
237.0, 174056.00685548864, 172225.13076366554, -187500.02235174447, -184300.6607056452, 155817.09513868036, -187500.02235174447, 14048.54077679405, 114277.45095222605, -0.052000000000000005, 0.936, -0.058, 192.0, 0.0, 0.0, 0.0, 0.0, 0.0, 0.0, 0.0, 0.0, 0.0, 1.696108654558591E9, 0.0, 2023-09-30 16:17:34.558
238.0, 173501.63888950812, 171520.96140634554, -187500.02235174447, -184437.00634682254, 155929.14443363482, -187500.02235174447, 14272.77347716969, 114079.59331030767, -0.052000000000000005, 0.936, -0.058, 192.0, 0.0, 0.0, 0.0, 0.0, 0.0, 0.0, 0.0, 0.0, 0.0, 1.6961086545586033E9, 0.0, 2023-09-30 16:17:34.558
239.0, 173762.59550602385, 173011.19691266978, -187500.02235174447, -184838.95776736233, 155829.14272894178, -187500.02235174447, 14033.855680686913, 114108.7846885663, -0.052000000000000005, 0.936, -0.058, 192.0, 0.0, 0.0, 0.0, 0.0, 0.0, 0.0, 0.0, 0.0, 0.0, 1.6961086545586145E9, 0.0, 2023-09-30 16:17:34.558
240.0, 174282.9441169434, 173450.9004295946, -187500.02235174447, -184937.43955343243, 155747.00006806853, -187500.02235174447, 13823.011675240003, 114459.30474511442, -0.052000000000000005, 0.936, -0.058, 192.0, 0.0, 0.0, 0.0, 0.0, 0.0, 0.0, 0.0, 0.0, 0.0, 1.6961086545586257E9, 0.0, 2023-09-30 16:17:34.558
241.0, 174070.35667542895, 172329.0216718938, -187500.02235174447, -184849.7313081898, 155864.32437471443, -187500.02235174447, 14011.77215716507, 114546.47654849011, -0.052000000000000005, 0.936, -0.058, 192.0, 0.0, 0.0, 0.0, 0.0, 0.0, 0.0, 0.0, 0.0, 0.0, 1.6961086545586376E9, 0.0, 2023-09-30 16:17:34.558
242.0, 173490.37361030266, 171371.4952911729, -187500.02235174447, -184903.6884193049, 156028.05090284956, -187500.02235174447, 14307.038701419677, 114347.25545015997, -0.052000000000000005, 0.936, -0.058, 192.0, 0.0, 0.0, 0.0, 0.0, 0.0, 0.0, 0.0, 0.0, 0.0, 1.6961086545586493E9, 0.0, 2023-09-30 16:17:34.558
243.0, 173568.4706054295, 172564.8325758973, -187500.02235174447, -185233.68957444307, 155986.94604479623, -187500.02235174447, 14178.51617080166, 114289.43148725409, -0.068, 0.98, -0.058, 192.0, 253.0, 224.0, 30.0, 160.0, 254.0, 48.0, 0.0, 0.0, 0.0, 1.6961086545586607E9, 0.0, 2023-09-30 16:17:34.558
244.0, 174152.6557985134, 173404.34174589417, -187500.02235174447, -185390.7552827305, 155905.38452927882, -187500.02235174447, 13919.191231631188, 114606.2004096747, -0.068, 0.98, -0.058, 192.0, 0.0, 0.0, 0.0, 0.0, 0.0, 0.0, 0.0, 0.0, 0.0, 1.6961086545586727E9, 0.0, 2023-09-30 16:17:34.558
245.0, 173994.7630756811, 172354.99439895086, -187500.02235174447, -185273.25216212895, 156008.71664389572, -187500.02235174447, 14047.803169227025, 114742.81427178554, -0.068, 0.98, -0.058, 192.0, 0.0, 0.0, 0.0, 0.0, 0.0, 0.0, 0.0, 0.0, 0.0, 1.696108654558684E9, 0.0, 2023-09-30 16:17:34.558
246.0, 173376.44676881394, 171169.68139048593, -187500.02235174447, -185277.49899357546, 156208.6753497929, -187500.02235174447, 14355.251414209773, 114549.42697875822, -0.068, 0.98, -0.058, 192.0, 0.0, 0.0, 0.0, 0.0, 0.0, 0.0, 0.0, 0.0, 0.0, 1.6961086545586956E9, 0.0, 2023-09-30 16:17:34.558
247.0, 173178.7232373623, 171868.75455007012, -187500.02235174447, -185529.22433963112, 156221.39349238796, -187500.02235174447, 14315.01827419022, 114408.36511950078, -0.068, 0.98, -0.058, 192.0, 0.0, 0.0, 0.0, 0.0, 0.0, 0.0, 0.0, 0.0, 0.0, 1.6961086545587077E9, 0.0, 2023-09-30 16:17:34.558
248.0, 173700.27884248245, 172979.09980763195, -187500.02235174447, -185732.0887723075, 156118.3072469601, -187500.02235174447, 14012.353302520909, 114643.14784325933, -0.068, 0.98, -0.058, 192.0, 0.0, 0.0, 0.0, 0.0, 0.0, 0.0, 0.0, 0.0, 0.0, 1.6961086545587192E9, 0.0, 2023-09-30 16:17:34.558
249.0, 173585.3685242377, 172030.603531671, -187500.02235174447, -185576.0959477539, 156158.00394511272, -187500.02235174447, 14075.474628862696, 114791.20579853127, -0.068, 0.98, -0.058, 192.0, 0.0, 0.0, 0.0, 0.0, 0.0, 0.0, 0.0, 0.0, 0.0, 1.6961086545587308E9, 0.0, 2023-09-30 16:17:34.558
250.0, 172975.85880468594, 170750.96616160468, -187500.02235174447, -185547.32925263993, 156319.27178135776, -187500.02235174447, 14371.389373706506, 114564.38029579882, -0.068, 0.98, -0.058, 192.0, 0.0, 0.0, 0.0, 0.0, 0.0, 0.0, 0.0, 0.0, 0.0, 1.6961086545587418E9, 0.0, 2023-09-30 16:17:34.558
251.0, 172645.54472512542, 171088.4775028798, -187500.02235174447, -185767.18101110234, 156339.92479323444, -187500.02235174447, 14414.148260849508, 114305.61415023974, -0.068, 0.98, -0.058, 192.0, 0.0, 0.0, 0.0, 0.0, 0.0, 0.0, 0.0, 0.0, 0.0, 1.6961086545587533E9, 0.0, 2023-09-30 16:17:34.558
252.0, 173243.63270326052, 172595.81209371236, -187500.02235174447, -186072.50584036182, 156207.4683555923, -187500.02235174447, 14086.270521434608, 114444.016151907, -0.068, 0.98, -0.058, 192.0, 0.0, 0.0, 0.0, 0.0, 0.0, 0.0, 0.0, 0.0, 0.0, 1.6961086545587645E9, 0.0, 2023-09-30 16:17:34.558
253.0, 173348.3059225447, 171981.00501072468, -187500.02235174447, -185955.15918197145, 156193.54321879664, -187500.02235174447, 14065.125771179888, 114641.62792463637, -0.08600000000000001, 1.004, -0.058, 192.0, 253.0, 80.0, 31.0, 96.0, 254.0, 48.0, 0.0, 0.0, 0.0, 1.6961086545587757E9, 0.0, 2023-09-30 16:17:34.558
254.0, 172817.85432313138, 170672.3774280998, -187500.02235174447, -185887.8357276721, 156331.9452204639, -187500.02235174447, 14332.78791103219, 114478.01315522351, -0.08600000000000001, 1.004, -0.058, 192.0, 0.0, 0.0, 0.0, 0.0, 0.0, 0.0, 0.0, 0.0, 0.0, 1.696108654558787E9, 0.0, 2023-09-30 16:17:34.558
255.0, 172309.73211642887, 170502.48181849503, -187500.02235174447, -186013.02784836627, 156382.5048664218, -187500.02235174447, 14456.348354381127, 114208.54052407034, -0.08600000000000001, 1.004, -0.058, 192.0, 0.0, 0.0, 0.0, 0.0, 0.0, 0.0, 0.0, 0.0, 0.0, 1.6961086545587993E9, 0.0, 2023-09-30 16:17:34.558
0.0, 172748.2286391531, 172056.53155523917, -187500.02235174447, -186331.80842778785, 156230.11067272554, -187500.02235174447, 14127.531841699105, 114269.29256549985, -0.08600000000000001, 1.004, -0.058, 192.0, 0.0, 0.0, 0.0, 0.0, 0.0, 0.0, 0.0, 0.0, 0.0, 1.696108654558811E9, 0.0, 2023-09-30 16:17:34.558
1.0, 172915.41968767878, 171674.96492564262, -187500.02235174447, -186238.1099150312, 156148.54915720812, -187500.02235174447, 14013.403834510307, 114481.34356514736, -0.08600000000000001, 1.004, -0.058, 192.0, 0.0, 0.0, 0.0, 0.0, 0.0, 0.0, 0.0, 0.0, 0.0, 1.6961086545588229E9, 0.0, 2023-09-30 16:17:34.558
2.0, 172444.37902502765, 170388.55497700634, -187500.02235174447, -186139.2928527943, 156257.60331840557, -187500.02235174447, 14237.34596220803, 114344.05915070286, -0.08600000000000001, 1.004, -0.058, 192.0, 0.0, 0.0, 0.0, 0.0, 0.0, 0.0, 0.0, 0.0, 0.0, 1.696108654558834E9, 0.0, 2023-09-30 16:17:34.558
3.0, 171887.79823634605, 169921.38116614596, -187500.02235174447, -186226.1517317476, 156355.57101435316, -187500.02235174447, 14422.194888853419, 114043.20467033442, -0.08600000000000001, 1.004, -0.058, 192.0, 0.0, 0.0, 0.0, 0.0, 0.0, 0.0, 0.0, 0.0, 0.0, 1.6961086545588453E9, 0.0, 2023-09-30 16:17:34.558
4.0, 172285.99456381734, 171560.76986322046, -187500.02235174447, -186589.94872450217, 156256.4410276939, -187500.02235174447, 14128.26944926613, 114021.14349855704, -0.08600000000000001, 1.004, -0.058, 192.0, 0.0, 0.0, 0.0, 0.0, 0.0, 0.0, 0.0, 0.0, 0.0, 1.6961086545588567E9, 0.0, 2023-09-30 16:17:34.558
5.0, 172698.7195251846, 171679.07764662238, -187500.02235174447, -186583.06438720995, 156198.12532641, -187500.02235174447, 13940.470092352642, 114272.98060333499, -0.08600000000000001, 1.004, -0.058, 192.0, 0.0, 0.0, 0.0, 0.0, 0.0, 0.0, 0.0, 0.0, 0.0, 1.6961086545588686E9, 0.0, 2023-09-30 16:17:34.558
6.0, 172407.81157109878, 170516.89869366869, -187500.02235174447, -186472.53501087846, 156333.5545460647, -187500.02235174447, 14124.536707942094, 114222.68917831054, -0.08600000000000001, 1.004, -0.058, 192.0, 0.0, 0.0, 0.0, 0.0, 0.0, 0.0, 0.0, 0.0, 0.0, 1.69610865455888E9, 0.0, 2023-09-30 16:17:34.558
7.0, 171892.96148931523, 169812.57287413752, -187500.02235174447, -186520.61361320183, 156507.69698711598, -187500.02235174447, 14368.058963782665, 113951.00372445628, -0.098, 1.018, -0.06, 192.0, 252.0, 240.0, 31.0, 208.0, 254.0, 32.0, 0.0, 0.0, 0.0, 1.6961086545588915E9, 0.0, 2023-09-30 16:17:34.558
8.0, 172216.5029903058, 171377.28439298682, -187500.02235174447, -186865.63514061394, 156487.80393455076, -187500.02235174447, 14166.066249140054, 113895.32552901811, -0.098, 1.018, -0.06, 192.0, 0.0, 0.0, 0.0, 0.0, 0.0, 0.0, 0.0, 0.0, 0.0, 1.696108654558903E9, 0.0, 2023-09-30 16:17:34.558
9.0, 172856.7463584836, 172049.42370050238, -187500.02235174447, -186940.89346419496, 156446.90024219756, -187500.02235174447, 13938.860766751859, 114195.24123611943, -0.098, 1.018, -0.06, 192.0, 0.0, 0.0, 0.0, 0.0, 0.0, 0.0, 0.0, 0.0, 0.0, 1.696108654558915E9, 0.0, 2023-09-30 16:17:34.558
10.0, 172757.1246334463, 171070.01496195974, -187500.02235174447, -186800.77037820464, 156583.201179886, -187500.02235174447, 14108.152879256355, 114272.95825159053, -0.098, 1.018, -0.06, 192.0, 0.0, 0.0, 0.0, 0.0, 0.0, 0.0, 0.0, 0.0, 0.0, 1.696108654558926E9, 0.0, 2023-09-30 16:17:34.558
11.0, 172314.2695205533, 170232.6292076861, -187500.02235174447, -186817.22126212376, 156797.8002784014, -187500.02235174447, 14411.913086403978, 114068.9762316914, -0.098, 1.018, -0.06, 192.0, 0.0, 0.0, 0.0, 0.0, 0.0, 0.0, 0.0, 0.0, 0.0, 1.696108654558937E9, 0.0, 2023-09-30 16:17:34.558
12.0, 172526.83461032328, 171540.49683099947, -187500.02235174447, -187141.14274277005, 156829.6738659947, -187500.02235174447, 14315.73353001279, 113991.19216098693, -0.098, 1.018, -0.06, 192.0, 0.0, 0.0, 0.0, 0.0, 0.0, 0.0, 0.0, 0.0, 0.0, 1.6961086545589485E9, 0.0, 2023-09-30 16:17:34.558
13.0, 173314.37597446155, 172665.21426024608, -187500.02235174447, -187324.13647462564, 156782.04229856044, -187500.02235174447, 14048.652535516327, 114309.36924330822, -0.098, 1.018, -0.06, 192.0, 0.0, 0.0, 0.0, 0.0, 0.0, 0.0, 0.0, 0.0, 0.0, 1.6961086547047355E9, 0.0, 2023-09-30 16:17:34.704
14.0, 173357.58189649368, 171798.36890678035, -187500.02235174447, -187178.6713217105, 156892.6834336142, -187500.02235174447, 14173.978766677234, 114490.12780071828, -0.098, 1.018, -0.06, 192.0, 0.0, 0.0, 0.0, 0.0, 0.0, 0.0, 0.0, 0.0, 0.0, 1.696108654704788E9, 0.0, 2023-09-30 16:17:34.704
15.0, 172935.29038849956, 170793.09919990294, -187500.02235174447, -187160.94638835746, 157117.20670666776, -187500.02235174447, 14508.494974195359, 114338.47121458904, -0.098, 1.018, -0.06, 192.0, 0.0, 0.0, 0.0, 0.0, 0.0, 0.0, 0.0, 0.0, 0.0, 1.6961086547048068E9, 0.0, 2023-09-30 16:17:34.704
16.0, 172950.7801474071, 171687.21368160413, -187500.02235174447, -187413.67756291362, 157202.27744606466, -187500.02235174447, 14539.832119921699, 114232.47924238196, -0.098, 1.018, -0.06, 192.0, 0.0, 0.0, 0.0, 0.0, 0.0, 0.0, 0.0, 0.0, 0.0, 1.696108654704821E9, 0.0, 2023-09-30 16:17:34.704
17.0, 173765.255363614, 173205.18770279738, -187500.02235174447, -187500.02235174447, 157167.6992973923, -187500.02235174447, 14277.042660360654, 114542.65440018826, -0.098, 1.018, -0.06, 192.0, 0.0, 0.0, 0.0, 0.0, 0.0, 0.0, 0.0, 0.0, 0.0, 1.6961086547048352E9, 0.0, 2023-09-30 16:17:34.704
18.0, 173948.45026116972, 172543.218439009, -187500.02235174447, -187482.92326723615, 157266.2704904402, -187500.02235174447, 14376.194998764397, 114835.84223220852, -0.106, 1.016, -0.064, 192.0, 252.0, 176.0, 31.0, 192.0, 254.0, 0.0, 0.0, 0.0, 0.0, 1.696108654704848E9, 0.0, 2023-09-30 16:17:34.704
19.0, 173588.65423067263, 171481.73409482648, -187500.02235174447, -187397.2266789945, 157508.0269584688, -187500.02235174447, 14739.276735696405, 114769.01051628716, -0.106, 1.016, -0.064, 192.0, 0.0, 0.0, 0.0, 0.0, 0.0, 0.0, 0.0, 0.0, 0.0, 1.696108654704867E9, 0.0, 2023-09-30 16:17:34.704
20.0, 173433.7342898529, 171907.55717844455, -187500.02235174447, -187500.02235174447, 157644.32789615725, -187500.02235174447, 14891.447411948135, 114649.13811077335, -0.106, 1.016, -0.064, 192.0, 0.0, 0.0, 0.0, 0.0, 0.0, 0.0, 0.0, 0.0, 0.0, 1.6961086547048862E9, 0.0, 2023-09-30 16:17:34.704
21.0, 174063.76291081464, 173587.1790155386, -187500.02235174447, -187500.02235174447, 157606.26287534987, -187500.02235174447, 14641.197281026518, 114901.46695392931, -0.106, 1.016, -0.064, 192.0, 0.0, 0.0, 0.0, 0.0, 0.0, 0.0, 0.0, 0.0, 0.0, 1.6961086547049017E9, 0.0, 2023-09-30 16:17:34.704
22.0, 174240.36404375604, 173259.10011042358, -187500.02235174447, -187500.02235174447, 157658.00716376392, -187500.02235174447, 14680.75986871241, 115245.92968773005, -0.106, 1.016, -0.064, 192.0, 0.0, 0.0, 0.0, 0.0, 0.0, 0.0, 0.0, 0.0, 0.0, 1.6961086547049167E9, 0.0, 2023-09-30 16:17:34.704
23.0, 174103.70547815628, 172139.45652716834, -187500.02235174447, -187500.02235174447, 157879.62471003828, -187500.02235174447, 15030.385855482324, 115226.81894622075, -0.106, 1.016, -0.064, 192.0, 0.0, 0.0, 0.0, 0.0, 0.0, 0.0, 0.0, 0.0, 0.0, 1.6961086547049387E9, 0.0, 2023-09-30 16:17:34.704
24.0, 173870.46502476514, 172078.65978224992, -187500.02235174447, -187500.02235174447, 158042.77009281758, -187500.02235174447, 15268.946024053816, 115079.83387468266, -0.106, 1.016, -0.064, 192.0, 0.0, 0.0, 0.0, 0.0, 0.0, 0.0, 0.0, 0.0, 0.0, 1.6961086547049525E9, 0.0, 2023-09-30 16:17:34.704
25.0, 174364.37152199406, 173779.38166610978, -187500.02235174447, -187500.02235174447, 158006.69437726671, -187500.02235174447, 15040.645306187309, 115260.99476349293, -0.106, 1.016, -0.064, 192.0, 0.0, 0.0, 0.0, 0.0, 0.0, 0.0, 0.0, 0.0, 0.0, 1.696108654704986E9, 0.0, 2023-09-30 16:17:34.704
26.0, 174718.0878779993, 173785.64015455724, -187500.02235174447, -187500.02235174447, 158017.53497332754, -187500.02235174447, 14993.840753297896, 115655.21248045117, -0.106, 1.016, -0.064, 192.0, 0.0, 0.0, 0.0, 0.0, 0.0, 0.0, 0.0, 0.0, 0.0, 1.696108654705E9, 0.0, 2023-09-30 16:17:34.705
27.0, 174477.06901753772, 172753.30248514444, -187500.02235174447, -187500.02235174447, 158195.9913010587, -187500.02235174447, 15291.096602809026, 115706.1074025759, -0.106, 1.016, -0.064, 192.0, 0.0, 0.0, 0.0, 0.0, 0.0, 0.0, 0.0, 0.0, 0.0, 1.696108654705016E9, 0.0, 2023-09-30 16:17:34.705
28.0, 174222.03561330267, 172285.45812195042, -187500.02235174447, -187500.02235174447, 158358.71200069334, -187500.02235174447, 15568.146475332556, 115546.04656053145, -0.108, 1.002, -0.058, 192.0, 252.0, 160.0, 31.0, 80.0, 254.0, 48.0, 0.0, 0.0, 0.0, 1.6961086547050297E9, 0.0, 2023-09-30 16:17:34.705
29.0, 174571.16986169457, 173821.35824219685, -187500.02235174447, -187500.02235174447, 158306.05129075662, -187500.02235174447, 15359.80586526464, 115623.42829983572, -0.108, 1.002, -0.058, 192.0, 0.0, 0.0, 0.0, 0.0, 0.0, 0.0, 0.0, 0.0, 0.0, 1.6961086547050433E9, 0.0, 2023-09-30 16:17:34.705
30.0, 175034.65563471982, 174062.6900270808, -187500.02235174447, -187500.02235174447, 158242.3935225479, -187500.02235174447, 15202.404880810367, 115988.29817632416, -0.108, 1.002, -0.058, 192.0, 0.0, 0.0, 0.0, 0.0, 0.0, 0.0, 0.0, 0.0, 0.0, 1.6961086547050593E9, 0.0, 2023-09-30 16:17:34.705
31.0, 174858.5685919009, 173040.12006999494, -187500.02235174447, -187500.02235174447, 158363.1823495844, -187500.02235174447, 15429.588011454109, 116066.05989528417, -0.108, 1.002, -0.058, 192.0, 0.0, 0.0, 0.0, 0.0, 0.0, 0.0, 0.0, 0.0, 0.0, 1.6961086547050748E9, 0.0, 2023-09-30 16:17:34.705
32.0, 174438.33344439667, 172284.3181829832, -187500.02235174447, -187500.02235174447, 158536.20720341292, -187500.02235174447, 15742.177157661577, 115885.54720706311, -0.108, 1.002, -0.058, 192.0, 0.0, 0.0, 0.0, 0.0, 0.0, 0.0, 0.0, 0.0, 0.0, 1.6961086547050974E9, 0.0, 2023-09-30 16:17:34.705
33.0, 174481.5840699177, 173643.3936528437, -187500.02235174447, -187500.02235174447, 158512.62611301258, -187500.02235174447, 15608.245504885377, 115862.05552364058, -0.108, 1.002, -0.058, 192.0, 0.0, 0.0, 0.0, 0.0, 0.0, 0.0, 0.0, 0.0, 0.0, 1.6961086547051127E9, 0.0, 2023-09-30 16:17:34.705
34.0, 174959.1514419498, 174310.9955562348, -187500.02235174447, -187500.02235174447, 158440.02764702175, -187500.02235174447, 15393.154667991957, 116206.0265190633, -0.108, 1.002, -0.058, 192.0, 0.0, 0.0, 0.0, 0.0, 0.0, 0.0, 0.0, 0.0, 0.0, 1.69610865470513E9, 0.0, 2023-09-30 16:17:34.705
35.0, 174792.6980009911, 173452.12977553962, -187500.02235174447, -187500.02235174447, 158535.80487201273, -187500.02235174447, 15576.774248692305, 116351.13404406716, -0.108, 1.002, -0.058, 192.0, 0.0, 0.0, 0.0, 0.0, 0.0, 0.0, 0.0, 0.0, 0.0, 1.6961086547051454E9, 0.0, 2023-09-30 16:17:34.705
36.0, 174362.91865860447, 172472.8998509526, -187500.02235174447, -187500.02235174447, 158726.59936268322, -187500.02235174447, 15912.877430066757, 116172.923585525, -0.108, 1.002, -0.058, 192.0, 0.0, 0.0, 0.0, 0.0, 0.0, 0.0, 0.0, 0.0, 0.0, 1.6961086547051597E9, 0.0, 2023-09-30 16:17:34.705
37.0, 174358.42595796895, 173410.5331791083, -187500.02235174447, -187500.02235174447, 158746.5147669929, -187500.02235174447, 15874.879464492735, 116064.53997666121, -0.108, 1.002, -0.058, 192.0, 0.0, 0.0, 0.0, 0.0, 0.0, 0.0, 0.0, 0.0, 0.0, 1.6961086547051747E9, 0.0, 2023-09-30 16:17:34.705
38.0, 174799.4482278166, 174408.9632521824, -187500.02235174447, -187500.02235174447, 158651.40809433558, -187500.02235174447, 15615.755691022361, 116358.13014008167, -0.128, 1.022, -0.04, 192.0, 252.0, 0.0, 31.0, 240.0, 254.0, 192.0, 0.0, 0.0, 0.0, 1.6961086547051876E9, 0.0, 2023-09-30 16:17:34.705
39.0, 174671.86447046572, 173709.5995199203, -187500.02235174447, -187500.02235174447, 158703.1076792607, -187500.02235174447, 15747.1168931862, 116566.38134317177, -0.128, 1.022, -0.04, 192.0, 0.0, 0.0, 0.0, 0.0, 0.0, 0.0, 0.0, 0.0, 0.0, 1.6961086547052023E9, 0.0, 2023-09-30 16:17:34.705
40.0, 174263.00636088924, 172666.26479223548, -187500.02235174447, -187500.02235174447, 158896.2043996101, -187500.02235174447, 16108.544601028516, 116442.53032714491, -0.128, 1.022, -0.04, 192.0, 0.0, 0.0, 0.0, 0.0, 0.0, 0.0, 0.0, 0.0, 0.0, 1.6961086547052226E9, 0.0, 2023-09-30 16:17:34.705
41.0, 174173.2641069012, 173202.77371439623, -187500.02235174447, -187500.02235174447, 158951.05558050342, -187500.02235174447, 16184.205256009729, 116301.42376439855, -0.128, 1.022, -0.04, 192.0, 0.0, 0.0, 0.0, 0.0, 0.0, 0.0, 0.0, 0.0, 0.0, 1.6961086547052393E9, 0.0, 2023-09-30 16:17:34.705
42.0, 174629.23969378945, 174451.6774358365, -187500.02235174447, -187500.02235174447, 158838.84982333778, -187500.02235174447, 15911.938656799633, 116544.2084126721, -0.128, 1.022, -0.04, 192.0, 0.0, 0.0, 0.0, 0.0, 0.0, 0.0, 0.0, 0.0, 0.0, 1.696108654705253E9, 0.0, 2023-09-30 16:17:34.705
43.0, 174661.9179441831, 173927.64078708182, -187500.02235174447, -187500.02235174447, 158841.86730883925, -187500.02235174447, 15975.238797097063, 116810.23887517916, -0.128, 1.022, -0.04, 192.0, 0.0, 0.0, 0.0, 0.0, 0.0, 0.0, 0.0, 0.0, 0.0, 1.6961086547052743E9, 0.0, 2023-09-30 16:17:34.705
44.0, 174302.36778287505, 172851.38193981434, -187500.02235174447, -187500.02235174447, 159008.8795434093, -187500.02235174447, 16322.160222787885, 116714.28283623254, -0.128, 1.022, -0.04, 192.0, 0.0, 0.0, 0.0, 0.0, 0.0, 0.0, 0.0, 0.0, 0.0, 1.6961086547052915E9, 0.0, 2023-09-30 16:17:34.705
45.0, 174145.36912982096, 172979.2786215876, -187500.02235174447, -187500.02235174447, 159087.87060831435, -187500.02235174447, 16488.188980601906, 116523.75656649549, -0.128, 1.022, -0.04, 192.0, 0.0, 0.0, 0.0, 0.0, 0.0, 0.0, 0.0, 0.0, 0.0, 1.696108654705307E9, 0.0, 2023-09-30 16:17:34.705
46.0, 174593.8121788278, 174408.00212717082, -187500.02235174447, -187500.02235174447, 158980.49282795106, -187500.02235174447, 16221.219744827718, 116684.21973994015, -0.128, 1.022, -0.04, 192.0, 0.0, 0.0, 0.0, 0.0, 0.0, 0.0, 0.0, 0.0, 0.0, 1.696108654705322E9, 0.0, 2023-09-30 16:17:34.705
47.0, 174743.0994800448, 174100.66564091036, -187500.02235174447, -187500.02235174447, 158930.78254828247, -187500.02235174447, 16201.01376784012, 116969.94208931233, -0.128, 1.022, -0.04, 192.0, 0.0, 0.0, 0.0, 0.0, 0.0, 0.0, 0.0, 0.0, 0.0, 1.6961086551170557E9, 0.0, 2023-09-30 16:17:35.117
48.0, 174360.28115275875, 172973.10954011793, -187500.02235174447, -187500.02235174447, 159049.00092470658, -187500.02235174447, 16499.007224918274, 116891.48746627421, -0.134, 0.972, -0.046, 192.0, 251.0, 208.0, 30.0, 96.0, 254.0, 144.0, 0.0, 0.0, 0.0, 1.696108655117139E9, 0.0, 2023-09-30 16:17:35.117
49.0, 174039.80184075856, 172631.88780926322, -187500.02235174447, -187500.02235174447, 159112.41282372628, -187500.02235174447, 16712.421680977546, 116631.53667825898, -0.134, 0.972, -0.046, 192.0, 0.0, 0.0, 0.0, 0.0, 0.0, 0.0, 0.0, 0.0, 0.0, 1.6961086551171668E9, 0.0, 2023-09-30 16:17:35.117
50.0, 174366.13730980604, 174140.71996697425, -187500.02235174447, -187500.02235174447, 158976.46951394912, -187500.02235174447, 16455.913061608444, 116657.84468148288, -0.134, 0.972, -0.046, 192.0, 0.0, 0.0, 0.0, 0.0, 0.0, 0.0, 0.0, 0.0, 0.0, 1.6961086551171837E9, 0.0, 2023-09-30 16:17:35.117
51.0, 174571.16986169457, 174076.48105340972, -187500.02235174447, -187500.02235174447, 158867.88473938522, -187500.02235174447, 16342.880289897954, 116932.45821386078, -0.134, 0.972, -0.046, 192.0, 0.0, 0.0, 0.0, 0.0, 0.0, 0.0, 0.0, 0.0, 0.0, 1.6961086551172059E9, 0.0, 2023-09-30 16:17:35.117
52.0, 174262.76049170023, 172917.25253072413, -187500.02235174447, -187500.02235174447, 158947.70281883513, -187500.02235174447, 16592.83984814165, 116885.07251561554, -0.134, 0.972, -0.046, 192.0, 0.0, 0.0, 0.0, 0.0, 0.0, 0.0, 0.0, 0.0, 0.0, 1.6961086551172218E9, 0.0, 2023-09-30 16:17:35.117
53.0, 173848.5826669434, 172229.8022782567, -187500.02235174447, -187500.02235174447, 159039.61319203535, -187500.02235174447, 16856.09869433626, 116593.78458187397, -0.134, 0.972, -0.046, 192.0, 0.0, 0.0, 0.0, 0.0, 0.0, 0.0, 0.0, 0.0, 0.0, 1.6961086551172369E9, 0.0, 2023-09-30 16:17:35.117
54.0, 174067.20507946075, 173637.47044056302, -187500.02235174447, -187500.02235174447, 158928.34620813682, -187500.02235174447, 16647.19929065696, 116502.0977261183, -0.134, 0.972, -0.046, 192.0, 0.0, 0.0, 0.0, 0.0, 0.0, 0.0, 0.0, 0.0, 0.0, 1.6961086551172512E9, 0.0, 2023-09-30 16:17:35.117
55.0, 174359.76706263627, 173961.79425260954, -187500.02235174447, -187500.02235174447, 158800.7400990415, -187500.02235174447, 16452.69441040688, 116751.52084249507, -0.134, 0.972, -0.046, 192.0, 0.0, 0.0, 0.0, 0.0, 0.0, 0.0, 0.0, 0.0, 0.0, 1.6961086551172652E9, 0.0, 2023-09-30 16:17:35.117
56.0, 174184.35057215102, 172865.68705626574, -187500.02235174447, -187500.02235174447, 158872.26568129848, -187500.02235174447, 16652.519005837323, 116766.42945604677, -0.134, 0.972, -0.046, 192.0, 0.0, 0.0, 0.0, 0.0, 0.0, 0.0, 0.0, 0.0, 0.0, 1.6961086551172793E9, 0.0, 2023-09-30 16:17:35.117
57.0, 173684.31969694135, 171923.11399258542, -187500.02235174447, -187500.02235174447, 159004.2303805626, -187500.02235174447, 16950.02072453746, 116494.83340917033, -0.134, 0.972, -0.046, 192.0, 0.0, 0.0, 0.0, 0.0, 0.0, 0.0, 0.0, 0.0, 0.0, 1.6961086551172922E9, 0.0, 2023-09-30 16:17:35.117
58.0, 173797.75480005203, 173129.12471641597, -187500.02235174447, -187500.02235174447, 158939.9691152536, -187500.02235174447, 16824.180403254082, 116342.34980849622, -0.134, 0.972, -0.046, 192.0, 0.0, 0.0, 0.0, 0.0, 0.0, 0.0, 0.0, 0.0, 0.0, 1.6961086551173055E9, 0.0, 2023-09-30 16:17:35.117
59.0, 174236.83246813208, 173902.51742631407, -187500.02235174447, -187500.02235174447, 158793.60989256023, -187500.02235174447, 16572.723278131878, 116591.16942777271, -0.11800000000000001, 0.9460000000000001, -0.03, 192.0, 252.0, 80.0, 29.0, 144.0, 255.0, 16.0, 0.0, 0.0, 0.0, 1.6961086551173227E9, 0.0, 2023-09-30 16:17:35.117
60.0, 174185.53521460717, 172939.62662692388, -187500.02235174447, -187500.02235174447, 158826.77988133192, -187500.02235174447, 16720.31184677027, 116700.06712675895, -0.11800000000000001, 0.9460000000000001, -0.03, 192.0, 0.0, 0.0, 0.0, 0.0, 0.0, 0.0, 0.0, 0.0, 0.0, 1.6961086551173377E9, 0.0, 2023-09-30 16:17:35.117
61.0, 173698.55775815938, 171844.54761082501, -187500.02235174447, -187500.02235174447, 158969.69693537915, -187500.02235174447, 17044.65801056123, 116481.37765900823, -0.11800000000000001, 0.9460000000000001, -0.03, 192.0, 0.0, 0.0, 0.0, 0.0, 0.0, 0.0, 0.0, 0.0, 0.0, 1.6961086551173599E9, 0.0, 2023-09-30 16:17:35.117
62.0, 173649.9427139691, 172718.38906030526, -187500.02235174447, -187500.02235174447, 158953.6260311158, -187500.02235174447, 17022.060396916913, 116287.945662492, -0.11800000000000001, 0.9460000000000001, -0.03, 192.0, 0.0, 0.0, 0.0, 0.0, 0.0, 0.0, 0.0, 0.0, 0.0, 1.6961086551173818E9, 0.0, 2023-09-30 16:17:35.117
63.0, 174158.73547300525, 173876.81292019045, -187500.02235174447, -187500.02235174447, 158809.90431426815, -187500.02235174447, 16731.800643420298, 116494.56518823687, -0.11800000000000001, 0.9460000000000001, -0.03, 192.0, 0.0, 0.0, 0.0, 0.0, 0.0, 0.0, 0.0, 0.0, 0.0, 1.6961086551174004E9, 0.0, 2023-09-30 16:17:35.117
64.0, 174173.86760400148, 173092.93724214283, -187500.02235174447, -187500.02235174447, 158808.3396921563, -187500.02235174447, 16817.072548517295, 116662.00210595157, -0.11800000000000001, 0.9460000000000001, -0.03, 192.0, 0.0, 0.0, 0.0, 0.0, 0.0, 0.0, 0.0, 0.0, 0.0, 1.6961086551174147E9, 0.0, 2023-09-30 16:17:35.117
65.0, 173703.22927275056, 171898.66118415134, -187500.02235174447, -187500.02235174447, 158945.48999613404, -187500.02235174447, 17139.094130884903, 116473.12986530422, -0.11800000000000001, 0.9460000000000001, -0.03, 192.0, 0.0, 0.0, 0.0, 0.0, 0.0, 0.0, 0.0, 0.0, 0.0, 1.6961086551174269E9, 0.0, 2023-09-30 16:17:35.117
66.0, 173496.6991539835, 172336.26363709732, -187500.02235174447, -187500.02235174447, 158963.84077833185, -187500.02235174447, 17206.41758518429, 116225.51724022834, -0.11800000000000001, 0.9460000000000001, -0.03, 192.0, 0.0, 0.0, 0.0, 0.0, 0.0, 0.0, 0.0, 0.0, 0.0, 1.696108655117442E9, 0.0, 2023-09-30 16:17:35.117
67.0, 174083.61125989095, 173807.12018097882, -187500.02235174447, -187500.02235174447, 158819.42615740612, -187500.02235174447, 16899.77400300193, 116365.6626779631, -0.11800000000000001, 0.9460000000000001, -0.03, 192.0, 0.0, 0.0, 0.0, 0.0, 0.0, 0.0, 0.0, 0.0, 0.0, 1.696108655117458E9, 0.0, 2023-09-30 16:17:35.117
68.0, 174215.33008996607, 173279.641363578, -187500.02235174447, -187500.02235174447, 158786.81496224581, -187500.02235174447, 16914.54850608689, 116592.77875337348, -0.11800000000000001, 0.9460000000000001, -0.03, 192.0, 0.0, 0.0, 0.0, 0.0, 0.0, 0.0, 0.0, 0.0, 0.0, 1.6961086551174707E9, 0.0, 2023-09-30 16:17:35.117
69.0, 173935.62035985236, 172070.34493331253, -187500.02235174447, -187500.02235174447, 158924.9487429796, -187500.02235174447, 17223.09198654795, 116460.27761224243, -0.10400000000000001, 0.934, -0.016, 192.0, 252.0, 192.0, 29.0, 48.0, 255.0, 128.0, 0.0, 0.0, 0.0, 1.696108655117486E9, 0.0, 2023-09-30 16:17:35.117
70.0, 173525.82347700876, 172095.37888710247, -187500.02235174447, -187500.02235174447, 158997.54720897047, -187500.02235174447, 17389.120744361968, 116197.08582128119, -0.10400000000000001, 0.934, -0.016, 192.0, 0.0, 0.0, 0.0, 0.0, 0.0, 0.0, 0.0, 0.0, 0.0, 1.6961086551175032E9, 0.0, 2023-09-30 16:17:35.117
71.0, 174000.19454958374, 173744.98233139305, -187500.02235174447, -187500.02235174447, 158894.93035017615, -187500.02235174447, 17110.550953215476, 116278.22265365395, -0.10400000000000001, 0.934, -0.016, 192.0, 0.0, 0.0, 0.0, 0.0, 0.0, 0.0, 0.0, 0.0, 0.0, 1.696108655117516E9, 0.0, 2023-09-30 16:17:35.117
72.0, 174243.3815292575, 173541.62616033867, -187500.02235174447, -187500.02235174447, 158848.4387217091, -187500.02235174447, 17060.259528191036, 116577.19958748814, -0.10400000000000001, 0.934, -0.016, 192.0, 0.0, 0.0, 0.0, 0.0, 0.0, 0.0, 0.0, 0.0, 0.0, 1.6961086551175292E9, 0.0, 2023-09-30 16:17:35.117
73.0, 174010.7222212222, 172383.24700394238, -187500.02235174447, -187500.02235174447, 158979.64346166176, -187500.02235174447, 17348.082941542023, 116546.7118080511, -0.10400000000000001, 0.934, -0.016, 192.0, 0.0, 0.0, 0.0, 0.0, 0.0, 0.0, 0.0, 0.0, 0.0, 1.6961086551175532E9, 0.0, 2023-09-30 16:17:35.117
74.0, 173542.25200918343, 171981.8990805029, -187500.02235174447, -187500.02235174447, 159075.08541048592, -187500.02235174447, 17584.318528690164, 116308.24104645742, -0.10400000000000001, 0.934, -0.016, 192.0, 0.0, 0.0, 0.0, 0.0, 0.0, 0.0, 0.0, 0.0, 0.0, 1.696108655117591E9, 0.0, 2023-09-30 16:17:35.117
75.0, 173994.09252334744, 173588.45306497253, -187500.02235174447, -187500.02235174447, 158971.50742668004, -187500.02235174447, 17349.49110144271, 116327.62000890018, -0.10400000000000001, 0.934, -0.016, 192.0, 0.0, 0.0, 0.0, 0.0, 0.0, 0.0, 0.0, 0.0, 0.0, 1.6961086551176116E9, 0.0, 2023-09-30 16:17:35.117
76.0, 174341.68450137193, 173726.38568000623, -187500.02235174447, -187500.02235174447, 158880.9605098916, -187500.02235174447, 17219.98509406866, 116654.49191981458, -0.10400000000000001, 0.934, -0.016, 192.0, 0.0, 0.0, 0.0, 0.0, 0.0, 0.0, 0.0, 0.0, 0.0, 1.696108655117632E9, 0.0, 2023-09-30 16:17:35.117
77.0, 174145.07855714305, 172616.53216082242, -187500.02235174447, -187500.02235174447, 158977.38593547177, -187500.02235174447, 17471.486922679775, 116697.80960056897, -0.10400000000000001, 0.934, -0.016, 192.0, 0.0, 0.0, 0.0, 0.0, 0.0, 0.0, 0.0, 0.0, 0.0, 1.6961086551176548E9, 0.0, 2023-09-30 16:17:35.117
78.0, 173652.11083318124, 171926.60086472047, -187500.02235174447, -187500.02235174447, 159096.49838167412, -187500.02235174447, 17765.45706575597, 116470.76058039196, -0.10400000000000001, 0.934, -0.016, 192.0, 0.0, 0.0, 0.0, 0.0, 0.0, 0.0, 0.0, 0.0, 0.0, 1.6961086551176836E9, 0.0, 2023-09-30 16:17:35.117
79.0, 173941.56592387747, 173375.95503043593, -187500.02235174447, -187500.02235174447, 159024.9951511616, -187500.02235174447, 17601.931703320945, 116410.74614652946, -0.098, 0.9420000000000001, -0.004, 192.0, 252.0, 240.0, 29.0, 112.0, 255.0, 224.0, 0.0, 0.0, 0.0, 1.6961086551177115E9, 0.0, 2023-09-30 16:17:35.117
80.0, 174353.08389104414, 173899.65640302378, -187500.02235174447, -187500.02235174447, 158905.07804215886, -187500.02235174447, 17403.090584646536, 116719.42373745725, -0.098, 0.9420000000000001, -0.004, 192.0, 0.0, 0.0, 0.0, 0.0, 0.0, 0.0, 0.0, 0.0, 0.0, 1.696108655117743E9, 0.0, 2023-09-30 16:17:35.117
81.0, 174228.07058430562, 172907.8647980529, -187500.02235174447, -187500.02235174447, 158963.84077833185, -187500.02235174447, 17603.026938799256, 116824.29812244156, -0.098, 0.9420000000000001, -0.004, 192.0, 0.0, 0.0, 0.0, 0.0, 0.0, 0.0, 0.0, 0.0, 0.0, 1.6961086551177616E9, 0.0, 2023-09-30 16:17:35.117
82.0, 173860.8314229049, 171982.21200492527, -187500.02235174447, -187500.02235174447, 159101.97455906565, -187500.02235174447, 17926.747253745467, 116623.26653281052, -0.098, 0.9420000000000001, -0.004, 192.0, 0.0, 0.0, 0.0, 0.0, 0.0, 0.0, 0.0, 0.0, 0.0, 1.696108655117851E9, 0.0, 2023-09-30 16:17:35.117
83.0, 173971.9642963367, 173125.97312044777, -187500.02235174447, -187500.02235174447, 159075.13011397482, -187500.02235174447, 17845.029276016867, 116501.4495255291, -0.098, 0.9420000000000001, -0.004, 192.0, 0.0, 0.0, 0.0, 0.0, 0.0, 0.0, 0.0, 0.0, 0.0, 1.6961086551178885E9, 0.0, 2023-09-30 16:17:35.117
84.0, 174459.79111907378, 174072.7483120857, -187500.02235174447, -187500.02235174447, 158949.021571758, -187500.02235174447, 17576.115438475066, 116787.55185455702, -0.098, 0.9420000000000001, -0.004, 192.0, 0.0, 0.0, 0.0, 0.0, 0.0, 0.0, 0.0, 0.0, 0.0, 1.696108655117916E9, 0.0, 2023-09-30 16:17:35.117
85.0, 174342.62327463905, 173218.39758377048, -187500.02235174447, -187500.02235174447, 158959.66100211872, -187500.02235174447, 17688.79058227427, 116961.67194386387, -0.098, 0.9420000000000001, -0.004, 192.0, 0.0, 0.0, 0.0, 0.0, 0.0, 0.0, 0.0, 0.0, 0.0, 1.6961086551179435E9, 0.0, 2023-09-30 16:17:35.117
86.0, 173997.6240989714, 172132.90746604293, -187500.02235174447, -187500.02235174447, 159087.82590482544, -187500.02235174447, 18001.558542437382, 116794.07856393798, -0.098, 0.9420000000000001, -0.004, 192.0, 0.0, 0.0, 0.0, 0.0, 0.0, 0.0, 0.0, 0.0, 0.0, 1.6961086551179657E9, 0.0, 2023-09-30 16:17:35.117
87.0, 173958.39678745234, 172891.2574519226, -187500.02235174447, -187500.02235174447, 159098.7559078641, -187500.02235174447, 18009.582818696836, 116623.13242234378, -0.098, 0.9420000000000001, -0.004, 192.0, 0.0, 0.0, 0.0, 0.0, 0.0, 0.0, 0.0, 0.0, 0.0, 1.6961086551179936E9, 0.0, 2023-09-30 16:17:35.117
88.0, 174497.09618056967, 174161.52944106216, -187500.02235174447, -187500.02235174447, 158979.59875817286, -187500.02235174447, 17710.181201718, 116856.12700654591, -0.098, 0.9420000000000001, -0.004, 192.0, 0.0, 0.0, 0.0, 0.0, 0.0, 0.0, 0.0, 0.0, 0.0, 1.696108655118027E9, 0.0, 2023-09-30 16:17:35.118
89.0, 174496.69384916947, 173495.939194672, -187500.02235174447, -187500.02235174447, 158970.16632201272, -187500.02235174447, 17757.03045809632, 117090.82032332664, -0.08, 0.9560000000000001, 0.0, 192.0, 253.0, 128.0, 29.0, 224.0, 0.0, 0.0, 0.0, 0.0, 0.0, 1.6961086551180563E9, 0.0, 2023-09-30 16:17:35.118
90.0, 174141.56933326356, 172370.48415785842, -187500.02235174447, -187500.02235174447, 159109.30593124698, -187500.02235174447, 18061.774141999977, 116966.54462415513, -0.08, 0.9560000000000001, 0.0, 192.0, 0.0, 0.0, 0.0, 0.0, 0.0, 0.0, 0.0, 0.0, 0.0, 1.6961086551180863E9, 0.0, 2023-09-30 16:17:35.118
91.0, 173947.28797045804, 172681.37457148728, -187500.02235174447, -187500.02235174447, 159157.38453357035, -187500.02235174447, 18155.740875690088, 116753.82307217397, -0.08, 0.9560000000000001, 0.0, 192.0, 0.0, 0.0, 0.0, 0.0, 0.0, 0.0, 0.0, 0.0, 0.0, 1.6961086551181092E9, 0.0, 2023-09-30 16:17:35.118
92.0, 174428.81160125873, 174173.73349353476, -187500.02235174447, -187500.02235174447, 159039.72495075763, -187500.02235174447, 17843.464653904994, 116902.59628326849, -0.08, 0.9560000000000001, 0.0, 192.0, 0.0, 0.0, 0.0, 0.0, 0.0, 0.0, 0.0, 0.0, 0.0, 1.696108655118145E9, 0.0, 2023-09-30 16:17:35.118
93.0, 174521.8395616817, 173738.18740107864, -187500.02235174447, -187500.02235174447, 159004.3868427738, -187500.02235174447, 17817.89425824812, 117184.25061514982, -0.08, 0.9560000000000001, 0.0, 192.0, 0.0, 0.0, 0.0, 0.0, 0.0, 0.0, 0.0, 0.0, 0.0, 1.6961086551181717E9, 0.0, 2023-09-30 16:17:35.118
94.0, 174228.07058430562, 172598.56135828036, -187500.02235174447, -187500.02235174447, 159141.7606641961, -187500.02235174447, 18107.05877626643, 117113.73086139333, -0.08, 0.9560000000000001, 0.0, 192.0, 0.0, 0.0, 0.0, 0.0, 0.0, 0.0, 0.0, 0.0, 0.0, 1.6961086551181967E9, 0.0, 2023-09-30 16:17:35.118
95.0, 174003.21203508522, 172501.4653803665, -187500.02235174447, -187500.02235174447, 159238.05197930956, -187500.02235174447, 18289.985452888664, 116875.30480328857, -0.08, 0.9560000000000001, 0.0, 192.0, 0.0, 0.0, 0.0, 0.0, 0.0, 0.0, 0.0, 0.0, 0.0, 1.696108655118226E9, 0.0, 2023-09-30 16:17:35.118
96.0, 174450.98453175838, 174123.08444059902, -187500.02235174447, -187500.02235174447, 159153.40592305732, -187500.02235174447, 18017.495336234017, 116943.18705119933, -0.08, 0.9560000000000001, 0.0, 192.0, 0.0, 0.0, 0.0, 0.0, 0.0, 0.0, 0.0, 0.0, 0.0, 1.6961086551182597E9, 0.0, 2023-09-30 16:17:35.118
97.0, 174658.0734441368, 174017.69596549225, -187500.02235174447, -187500.02235174447, 159103.82975385545, -187500.02235174447, 17927.417806079127, 117260.4253602535, -0.08, 0.9560000000000001, 0.0, 192.0, 0.0, 0.0, 0.0, 0.0, 0.0, 0.0, 0.0, 0.0, 0.0, 1.6961086551182928E9, 0.0, 2023-09-30 16:17:35.118
98.0, 174340.4998589158, 172948.7684904061, -187500.02235174447, -187500.02235174447, 159231.7934908621, -187500.02235174447, 18191.280149374026, 117265.16393007802, -0.08, 0.9560000000000001, 0.0, 192.0, 0.0, 0.0, 0.0, 0.0, 0.0, 0.0, 0.0, 0.0, 0.0, 1.6961086551183217E9, 0.0, 2023-09-30 16:17:35.118
99.0, 174033.9680354557, 172460.22641184647, -187500.02235174447, -187500.02235174447, 159364.875777349, -187500.02235174447, 18445.195966386316, 117041.95940994733, -0.08, 0.9560000000000001, 0.0, 192.0, 0.0, 0.0, 0.0, 0.0, 0.0, 0.0, 0.0, 0.0, 0.0, 1.6961086551183493E9, 0.0, 2023-09-30 16:17:35.118
100.0, 174374.2062895544, 173978.558060951, -187500.02235174447, -187500.02235174447, 159310.78455576714, -187500.02235174447, 18223.66782708977, 117034.56098253262, -0.058, 0.974, -0.008, 192.0, 254.0, 48.0, 30.0, 112.0, 255.0, 192.0, 0.0, 0.0, 0.0, 1.6961086551183748E9, 0.0, 2023-09-30 16:17:35.118
101.0, 174730.06841302736, 174202.8801683045, -187500.02235174447, -187500.02235174447, 159242.07529331153, -187500.02235174447, 18056.94616519763, 117365.9032423381, -0.058, 0.974, -0.008, 192.0, 0.0, 0.0, 0.0, 0.0, 0.0, 0.0, 0.0, 0.0, 0.0, 1.6961086551184006E9, 0.0, 2023-09-30 16:17:35.118
102.0, 174455.65604634956, 173185.74168512126, -187500.02235174447, -187500.02235174447, 159347.7543410962, -187500.02235174447, 18283.14581908534, 117439.44048159606, -0.058, 0.974, -0.008, 192.0, 0.0, 0.0, 0.0, 0.0, 0.0, 0.0, 0.0, 0.0, 0.0, 1.6961086551184216E9, 0.0, 2023-09-30 16:17:35.118
103.0, 174107.6393851804, 172409.97969031092, -187500.02235174447, -187500.02235174447, 159503.2107237829, -187500.02235174447, 18591.599892568578, 117229.95993256092, -0.058, 0.974, -0.008, 192.0, 0.0, 0.0, 0.0, 0.0, 0.0, 0.0, 0.0, 0.0, 0.0, 1.6961086551184928E9, 0.0, 2023-09-30 16:17:35.118
104.0, 174313.65541382498, 173702.96105181708, -187500.02235174447, -187500.02235174447, 159484.7928863517, -187500.02235174447, 18456.237728147236, 117146.78909144273, -0.058, 0.974, -0.008, 192.0, 0.0, 0.0, 0.0, 0.0, 0.0, 0.0, 0.0, 0.0, 0.0, 1.6961086551185205E9, 0.0, 2023-09-30 16:17:35.118
105.0, 174757.494003474, 174316.06940222616, -187500.02235174447, -187500.02235174447, 159402.18083884488, -187500.02235174447, 18232.630876616346, 117461.00991499543, -0.058, 0.974, -0.008, 192.0, 0.0, 0.0, 0.0, 0.0, 0.0, 0.0, 0.0, 0.0, 0.0, 1.69610865511855E9, 0.0, 2023-09-30 16:17:35.118
106.0, 174558.76464352186, 173359.07946337218, -187500.02235174447, -187500.02235174447, 159477.0368310257, -187500.02235174447, 18407.6450357014, 117598.24962595101, -0.058, 0.974, -0.008, 192.0, 0.0, 0.0, 0.0, 0.0, 0.0, 0.0, 0.0, 0.0, 0.0, 1.6961086551185775E9, 0.0, 2023-09-30 16:17:35.118
107.0, 174183.2553366727, 172390.2878034458, -187500.02235174447, -187500.02235174447, 159640.9868766054, -187500.02235174447, 18741.66950484151, 117410.49497252643, -0.058, 0.974, -0.008, 192.0, 0.0, 0.0, 0.0, 0.0, 0.0, 0.0, 0.0, 0.0, 0.0, 1.6961086551186078E9, 0.0, 2023-09-30 16:17:35.118
108.0, 174257.39607303098, 173394.26110914483, -187500.02235174447, -187500.02235174447, 159660.58935649268, -187500.02235174447, 18705.124402657082, 117262.95110737695, -0.058, 0.974, -0.008, 192.0, 0.0, 0.0, 0.0, 0.0, 0.0, 0.0, 0.0, 0.0, 0.0, 1.6961086551186478E9, 0.0, 2023-09-30 16:17:35.118
109.0, 174787.64650674423, 174417.05458367523, -187500.02235174447, -187500.02235174447, 159582.13473345456, -187500.02235174447, 18442.066722162574, 117530.54619199589, -0.058, 0.974, -0.008, 192.0, 0.0, 0.0, 0.0, 0.0, 0.0, 0.0, 0.0, 0.0, 0.0, 1.69610865511868E9, 0.0, 2023-09-30 16:17:35.118
110.0, 174723.27348271295, 173716.61796767928, -187500.02235174447, -187500.02235174447, 159641.0762835832, -187500.02235174447, 18568.91287194644, 117753.5942499154, -0.056, 0.992, -0.02, 192.0, 254.0, 64.0, 31.0, 0.0, 255.0, 96.0, 0.0, 0.0, 0.0, 1.6961086551187143E9, 0.0, 2023-09-30 16:17:35.118
111.0, 174341.0586525272, 172682.5592139434, -187500.02235174447, -187500.02235174447, 159823.1759456606, -187500.02235174447, 18916.30368427082, 117626.90456234272, -0.056, 0.992, -0.02, 192.0, 0.0, 0.0, 0.0, 0.0, 0.0, 0.0, 0.0, 0.0, 0.0, 1.6961086551187472E9, 0.0, 2023-09-30 16:17:35.118
112.0, 174363.34334174913, 173275.88627050954, -187500.02235174447, -187500.02235174447, 159902.7928594104, -187500.02235174447, 18988.030432227904, 117456.13723470418, -0.056, 0.992, -0.02, 192.0, 0.0, 0.0, 0.0, 0.0, 0.0, 0.0, 0.0, 0.0, 0.0, 1.696108655118812E9, 0.0, 2023-09-30 16:17:35.118
113.0, 174976.63050611384, 174556.708283032, -187500.02235174447, -187500.02235174447, 159839.04568422388, -187500.02235174447, 18706.174934646482, 117672.05508614244, -0.056, 0.992, -0.02, 192.0, 0.0, 0.0, 0.0, 0.0, 0.0, 0.0, 0.0, 0.0, 0.0, 1.696108655118852E9, 0.0, 2023-09-30 16:17:35.118
114.0, 175039.79653594454, 174055.47041362172, -187500.02235174447, -187500.02235174447, 159866.15835024815, -187500.02235174447, 18757.159263749036, 117942.35473184047, -0.056, 0.992, -0.02, 192.0, 0.0, 0.0, 0.0, 0.0, 0.0, 0.0, 0.0, 0.0, 0.0, 1.6961086551188743E9, 0.0, 2023-09-30 16:17:35.118
115.0, 174587.5536903803, 173010.54871208058, -187500.02235174447, -187500.02235174447, 160041.01604712202, -187500.02235174447, 19089.529703799453, 117845.50462311562, -0.056, 0.992, -0.02, 192.0, 0.0, 0.0, 0.0, 0.0, 0.0, 0.0, 0.0, 0.0, 0.0, 1.6961086551189044E9, 0.0, 2023-09-30 16:17:35.118
116.0, 174432.32082513822, 173147.2743329137, -187500.02235174447, -187500.02235174447, 160141.01775181506, -187500.02235174447, 19241.72273179564, 117612.39828019122, -0.056, 0.992, -0.02, 192.0, 0.0, 0.0, 0.0, 0.0, 0.0, 0.0, 0.0, 0.0, 0.0, 1.696108655118929E9, 0.0, 2023-09-30 16:17:35.118
117.0, 174989.86273883138, 174556.93180047654, -187500.02235174447, -187500.02235174447, 160075.79536149447, -187500.02235174447, 18953.13935913317, 117716.60211284187, -0.056, 0.992, -0.02, 192.0, 0.0, 0.0, 0.0, 0.0, 0.0, 0.0, 0.0, 0.0, 0.0, 1.6961086551189535E9, 0.0, 2023-09-30 16:17:35.118
118.0, 175176.7456742222, 174261.30762831063, -187500.02235174447, -187500.02235174447, 160047.45334952514, -187500.02235174447, 18907.385338233154, 117997.42943017834, -0.056, 0.992, -0.02, 192.0, 0.0, 0.0, 0.0, 0.0, 0.0, 0.0, 0.0, 0.0, 0.0, 1.696108655118981E9, 0.0, 2023-09-30 16:17:35.118
119.0, 174764.78067216644, 173232.6803484774, -187500.02235174447, -187500.02235174447, 160171.61728997438, -187500.02235174447, 19184.457562501142, 117928.34018806698, -0.056, 0.992, -0.02, 192.0, 0.0, 0.0, 0.0, 0.0, 0.0, 0.0, 0.0, 0.0, 0.0, 1.6961086551190023E9, 0.0, 2023-09-30 16:17:35.119
120.0, 174431.96319722693, 172947.85206888343, -187500.02235174447, -187500.02235174447, 160268.64621265486, -187500.02235174447, 19387.925492277802, 117667.58473725138, -0.058, 0.994, -0.026000000000000002, 192.0, 254.0, 48.0, 31.0, 16.0, 255.0, 48.0, 0.0, 0.0, 0.0, 1.6961086551190276E9, 0.0, 2023-09-30 16:17:35.119
121.0, 174897.14770283076, 174365.93614410594, -187500.02235174447, -187500.02235174447, 160192.22559836216, -187500.02235174447, 19112.283779654954, 117664.27667907199, -0.058, 0.994, -0.026000000000000002, 192.0, 0.0, 0.0, 0.0, 0.0, 0.0, 0.0, 0.0, 0.0, 0.0, 1.6961086551190472E9, 0.0, 2023-09-30 16:17:35.119
122.0, 175207.52402633717, 174346.5571816632, -187500.02235174447, -187500.02235174447, 160124.1421847513, -187500.02235174447, 18975.647565799663, 117945.21575513075, -0.058, 0.994, -0.026000000000000002, 192.0, 0.0, 0.0, 0.0, 0.0, 0.0, 0.0, 0.0, 0.0, 0.0, 1.6961086551190712E9, 0.0, 2023-09-30 16:17:35.119
123.0, 174793.63677425825, 173345.35549227663, -187500.02235174447, -187500.02235174447, 160206.77658400257, -187500.02235174447, 19205.17762961121, 117918.01368212864, -0.058, 0.994, -0.026000000000000002, 192.0, 0.0, 0.0, 0.0, 0.0, 0.0, 0.0, 0.0, 0.0, 0.0, 1.6961086551190965E9, 0.0, 2023-09-30 16:17:35.119
124.0, 174384.86807165958, 172727.08388889837, -187500.02235174447, -187500.02235174447, 160303.64904447188, -187500.02235174447, 19453.170234342844, 117637.99102759255, -0.058, 0.994, -0.026000000000000002, 192.0, 0.0, 0.0, 0.0, 0.0, 0.0, 0.0, 0.0, 0.0, 0.0, 1.6961086551191244E9, 0.0, 2023-09-30 16:17:35.119
125.0, 174712.81286630785, 174073.32945744152, -187500.02235174447, -187500.02235174447, 160237.2643634396, -187500.02235174447, 19236.04538870399, 117545.43245380312, -0.058, 0.994, -0.026000000000000002, 192.0, 0.0, 0.0, 0.0, 0.0, 0.0, 0.0, 0.0, 0.0, 0.0, 1.6961086551191535E9, 0.0, 2023-09-30 16:17:35.119
126.0, 175139.17239179285, 174408.40445857102, -187500.02235174447, -187500.02235174447, 160140.39190297032, -187500.02235174447, 19025.223735001535, 117826.57269556198, -0.058, 0.994, -0.026000000000000002, 192.0, 0.0, 0.0, 0.0, 0.0, 0.0, 0.0, 0.0, 0.0, 0.0, 1.6961086551191835E9, 0.0, 2023-09-30 16:17:35.119
127.0, 174806.24315813102, 173475.06266535076, -187500.02235174447, -187500.02235174447, 160190.10218263892, -187500.02235174447, 19206.474030789617, 117883.077905545, -0.058, 0.994, -0.026000000000000002, 192.0, 0.0, 0.0, 0.0, 0.0, 0.0, 0.0, 0.0, 0.0, 0.0, 1.6961086551192105E9, 0.0, 2023-09-30 16:17:35.119
128.0, 174355.74374863433, 172628.95973073956, -187500.02235174447, -187500.02235174447, 160300.65391071487, -187500.02235174447, 19492.419897606364, 117630.05615831092, -0.058, 0.994, -0.026000000000000002, 192.0, 0.0, 0.0, 0.0, 0.0, 0.0, 0.0, 0.0, 0.0, 0.0, 1.6961086551192396E9, 0.0, 2023-09-30 16:17:35.119
129.0, 174561.37979762314, 173772.3632183508, -187500.02235174447, -187500.02235174447, 160272.75893363464, -187500.02235174447, 19364.03147745508, 117465.41320865313, -0.058, 0.994, -0.026000000000000002, 192.0, 0.0, 0.0, 0.0, 0.0, 0.0, 0.0, 0.0, 0.0, 0.0, 1.6961086551192665E9, 0.0, 2023-09-30 16:17:35.119
130.0, 175079.94026898628, 174492.24585202287, -187500.02235174447, -187500.02235174447, 160172.93604289723, -187500.02235174447, 19097.129296914256, 117719.06080473195, -0.084, 1.014, -0.028, 192.0, 253.0, 96.0, 31.0, 176.0, 255.0, 32.0, 0.0, 0.0, 0.0, 1.6961086551192896E9, 0.0, 2023-09-30 16:17:35.119
131.0, 174854.65703662124, 173675.75897881496, -187500.02235174447, -187500.02235174447, 160198.32762459846, -187500.02235174447, 19223.528411809017, 117853.2159749527, -0.084, 1.014, -0.028, 192.0, 0.0, 0.0, 0.0, 0.0, 0.0, 0.0, 0.0, 0.0, 0.0, 1.696108655119314E9, 0.0, 2023-09-30 16:17:35.119
132.0, 174398.43558054397, 172695.83615014984, -187500.02235174447, -187500.02235174447, 160323.4973935482, -187500.02235174447, 19530.797842836124, 117654.64307721176, -0.084, 1.014, -0.028, 192.0, 0.0, 0.0, 0.0, 0.0, 0.0, 0.0, 0.0, 0.0, 0.0, 1.696108655119345E9, 0.0, 2023-09-30 16:17:35.119
133.0, 174460.14874698507, 173507.42799132204, -187500.02235174447, -187500.02235174447, 160331.65578027436, -187500.02235174447, 19503.215790178274, 117456.04782772635, -0.084, 1.014, -0.028, 192.0, 0.0, 0.0, 0.0, 0.0, 0.0, 0.0, 0.0, 0.0, 0.0, 1.6961086551193745E9, 0.0, 2023-09-30 16:17:35.119
134.0, 175024.39618401483, 174556.28359988733, -187500.02235174447, -187500.02235174447, 160230.29061916957, -187500.02235174447, 19203.925931921713, 117676.59249026686, -0.084, 1.014, -0.028, 192.0, 0.0, 0.0, 0.0, 0.0, 0.0, 0.0, 0.0, 0.0, 0.0, 1.6961086551194108E9, 0.0, 2023-09-30 16:17:35.119
135.0, 174932.2846451145, 173899.32112685696, -187500.02235174447, -187500.02235174447, 160228.7707005466, -187500.02235174447, 19269.170673986755, 117889.49285620367, -0.084, 1.014, -0.028, 192.0, 0.0, 0.0, 0.0, 0.0, 0.0, 0.0, 0.0, 0.0, 0.0, 1.6961086551194427E9, 0.0, 2023-09-30 16:17:35.119
136.0, 174470.5870116457, 172877.6452395493, -187500.02235174447, -187500.02235174447, 160347.59257407102, -187500.02235174447, 19577.691802703357, 117740.22790673113, -0.084, 1.014, -0.028, 192.0, 0.0, 0.0, 0.0, 0.0, 0.0, 0.0, 0.0, 0.0, 0.0, 1.6961086551194763E9, 0.0, 2023-09-30 16:17:35.119
137.0, 174418.28392962026, 173294.57232887417, -187500.02235174447, -187500.02235174447, 160379.66732736438, -187500.02235174447, 19648.546832626682, 117506.00397658396, -0.084, 1.014, -0.028, 192.0, 0.0, 0.0, 0.0, 0.0, 0.0, 0.0, 0.0, 0.0, 0.0, 1.6961086551195018E9, 0.0, 2023-09-30 16:17:35.119
138.0, 175009.3534599964, 174595.5556148953, -187500.02235174447, -187500.02235174447, 160281.52081746113, -187500.02235174447, 19340.070407398987, 117643.6236671953, -0.084, 1.014, -0.028, 192.0, 0.0, 0.0, 0.0, 0.0, 0.0, 0.0, 0.0, 0.0, 0.0, 1.6961086551195254E9, 0.0, 2023-09-30 16:17:35.119
139.0, 175080.6331730644, 174159.31661836107, -187500.02235174447, -187500.02235174447, 160246.09330249947, -187500.02235174447, 19337.030570153067, 117899.12645806391, -0.084, 1.014, -0.028, 192.0, 0.0, 0.0, 0.0, 0.0, 0.0, 0.0, 0.0, 0.0, 0.0, 1.6961086551195624E9, 0.0, 2023-09-30 16:17:35.119
140.0, 174615.3145569938, 173188.71446713383, -187500.02235174447, -187500.02235174447, 160346.67615254835, -187500.02235174447, 19626.351550382562, 117792.10630561189, -0.084, 1.014, -0.028, 192.0, 0.0, 0.0, 0.0, 0.0, 0.0, 0.0, 0.0, 0.0, 0.0, 1.6961086551195917E9, 0.0, 2023-09-30 16:17:35.119
141.0, 174424.25184538984, 173223.382022784, -187500.02235174447, -187500.02235174447, 160405.0142055767, -187500.02235174447, 19785.406563926528, 117526.5899332273, -0.106, 0.984, -0.038, 192.0, 252.0, 176.0, 30.0, 192.0, 254.0, 208.0, 0.0, 0.0, 0.0, 1.696108655119624E9, 0.0, 2023-09-30 16:17:35.119
