%OpenBCI Raw EXG Data
%Number of channels = 8
%Sample Rate = 250 Hz
%Board = OpenBCI_GUI$BoardCytonSerial
Sample Index, EXG Channel 0, EXG Channel 1, EXG Channel 2, EXG Channel 3, EXG Channel 4, EXG Channel 5, EXG Channel 6, EXG Channel 7, Accel Channel 0, Accel Channel 1, Accel Channel 2, Other, Other, Other, Other, Other, Other, Other, Analog Channel 0, Analog Channel 1, Analog Channel 2, Timestamp, Other, Timestamp (Formatted)
0.0, 0.0, 0.0, 0.0, 0.0, 0.0, 0.0, 0.0, 0.0, 0.0, 0.0, 0.0, 192.0, 0.0, 0.0, 0.0, 0.0, 0.0, 0.0, 0.0, 0.0, 0.0, 1.6961087105070295E9, 0.0, 2023-09-30 16:18:30.507
1.0, 154082.06332708162, 154563.05051601536, -159767.09541882222, -160360.37777189945, 154683.39230816273, -169887.13829364043, 65942.7646926361, 79073.47578686188, -0.106, 0.978, -0.048, 192.0, 252.0, 176.0, 30.0, 144.0, 254.0, 128.0, 0.0, 0.0, 0.0, 1.69610871064087E9, 0.0, 2023-09-30 16:18:30.640
2.0, 154526.1254341752, 154571.11949576373, -159783.3674887857, -160432.1715750899, 154686.99093902003, -169912.1945991748, 65715.60391373682, 79213.35300366319, -0.106, 0.978, -0.048, 192.0, 0.0, 0.0, 0.0, 0.0, 0.0, 0.0, 0.0, 0.0, 0.0, 1.6961087106409683E9, 0.0, 2023-09-30 16:18:30.640
3.0, 154409.11405195168, 154566.20211198356, -159800.69009073856, -160236.03501749458, 154685.00163376352, -169886.3559825845, 65775.73010632159, 79376.83366260931, -0.106, 0.978, -0.048, 192.0, 0.0, 0.0, 0.0, 0.0, 0.0, 0.0, 0.0, 0.0, 0.0, 1.6961087106409905E9, 0.0, 2023-09-30 16:18:30.640
4.0, 154031.81660554608, 154555.24975720045, -159780.19354107304, -160145.91278385077, 154677.33498541533, -169866.21706083024, 65942.58587868046, 79278.2624695614, -0.106, 0.978, -0.048, 192.0, 0.0, 0.0, 0.0, 0.0, 0.0, 0.0, 0.0, 0.0, 0.0, 1.6961087106410153E9, 0.0, 2023-09-30 16:18:30.641
5.0, 153988.7447939807, 154553.57337636632, -159765.217872288, -160301.25740781517, 154674.6080725918, -169885.86424420646, 65898.1506107033, 79127.81287763272, -0.106, 0.978, -0.048, 192.0, 0.0, 0.0, 0.0, 0.0, 0.0, 0.0, 0.0, 0.0, 0.0, 1.6961087106410313E9, 0.0, 2023-09-30 16:18:30.641
6.0, 154448.74369487094, 154563.51990264893, -159775.45497124852, -160468.5825668076, 154679.97249126108, -169922.4093463909, 65636.65755232067, 79186.93324171701, -0.106, 0.978, -0.048, 192.0, 0.0, 0.0, 0.0, 0.0, 0.0, 0.0, 0.0, 0.0, 0.0, 1.6961087106410468E9, 0.0, 2023-09-30 16:18:30.641
7.0, 154333.40869348153, 154556.1885304676, -159780.6629277066, -160239.14190997387, 154674.9657005031, -169897.42009608986, 65645.97822975853, 79333.65009232165, -0.106, 0.978, -0.048, 192.0, 0.0, 0.0, 0.0, 0.0, 0.0, 0.0, 0.0, 0.0, 0.0, 1.6961087106410618E9, 0.0, 2023-09-30 16:18:30.641
8.0, 153907.31738893, 154545.25852742893, -159776.1702270711, -160144.57167918346, 154667.23199692156, -169872.4084940444, 65830.04484534799, 79229.17803873755, -0.094, 0.982, -0.068, 192.0, 253.0, 16.0, 30.0, 176.0, 253.0, 224.0, 0.0, 0.0, 0.0, 1.696108710641076E9, 0.0, 2023-09-30 16:18:30.641
9.0, 153785.83565781542, 154541.10110296024, -159760.97104084148, -160227.1613749458, 154663.0075172195, -169879.87397669244, 65891.13216294434, 79056.5555163092, -0.094, 0.982, -0.068, 192.0, 0.0, 0.0, 0.0, 0.0, 0.0, 0.0, 0.0, 0.0, 0.0, 1.6961087106410933E9, 0.0, 2023-09-30 16:18:30.641
10.0, 154317.7177688739, 154552.00875425444, -159758.93703209603, -160431.1210431005, 154669.5565783449, -169920.1518202009, 65679.05881155239, 79071.75470253882, -0.094, 0.982, -0.068, 192.0, 0.0, 0.0, 0.0, 0.0, 0.0, 0.0, 0.0, 0.0, 0.0, 1.6961087106411092E9, 0.0, 2023-09-30 16:18:30.641
11.0, 154335.80033013827, 154547.6278123412, -159774.09151483673, -160251.01068627962, 154666.09205795432, -169900.21406414677, 65676.33189872884, 79243.39374821112, -0.094, 0.982, -0.068, 192.0, 0.0, 0.0, 0.0, 0.0, 0.0, 0.0, 0.0, 0.0, 0.0, 1.6961087106411242E9, 0.0, 2023-09-30 16:18:30.641
12.0, 153874.7732490031, 154534.06030345682, -159763.9661745985, -160171.5055312521, 154655.87731073826, -169869.36865679844, 65865.62882252084, 79179.87009046914, -0.094, 0.982, -0.068, 192.0, 0.0, 0.0, 0.0, 0.0, 0.0, 0.0, 0.0, 0.0, 0.0, 1.6961087106411383E9, 0.0, 2023-09-30 16:18:30.641
13.0, 153605.88176320575, 154529.2770301434, -159748.72228487997, -160194.03608966304, 154651.74223801403, -169870.70976146578, 65978.01339364212, 78998.57509119215, -0.094, 0.982, -0.068, 192.0, 0.0, 0.0, 0.0, 0.0, 0.0, 0.0, 0.0, 0.0, 0.0, 1.6961087106411536E9, 0.0, 2023-09-30 16:18:30.641
14.0, 154085.7737166612, 154539.60353608173, -159744.56486041128, -160424.99666511975, 154659.07361019537, -169915.100325954, 65777.8758737893, 78979.17377700494, -0.094, 0.982, -0.068, 192.0, 0.0, 0.0, 0.0, 0.0, 0.0, 0.0, 0.0, 0.0, 0.0, 1.6961087106412067E9, 0.0, 2023-09-30 16:18:30.641
15.0, 154226.52265149626, 154540.05057097087, -159770.98462235744, -160280.53734070508, 154659.56534857338, -169907.54543632813, 65713.74871894703, 79186.57561380573, -0.094, 0.982, -0.068, 192.0, 0.0, 0.0, 0.0, 0.0, 0.0, 0.0, 0.0, 0.0, 0.0, 1.6961087106412303E9, 0.0, 2023-09-30 16:18:30.641
16.0, 153814.66940816276, 154532.65214355616, -159772.43748574704, -160203.69204326774, 154654.3573921153, -169877.66115399136, 65884.76191577458, 79214.00120425239, -0.094, 0.982, -0.068, 192.0, 0.0, 0.0, 0.0, 0.0, 0.0, 0.0, 0.0, 0.0, 0.0, 1.6961087106412463E9, 0.0, 2023-09-30 16:18:30.641
17.0, 153511.44564288208, 154524.7619777634, -159752.38797097065, -160174.0983336089, 154647.60716528978, -169867.87108991994, 66030.94232451229, 79069.31836239318, -0.094, 0.982, -0.068, 192.0, 0.0, 0.0, 0.0, 0.0, 0.0, 0.0, 0.0, 0.0, 0.0, 1.6961087106412606E9, 0.0, 2023-09-30 16:18:30.641
18.0, 153911.2736476986, 154532.45097785606, -159740.34038070924, -160389.59150190253, 154652.45749383658, -169907.2995671391, 65846.85335717838, 79010.68973668692, -0.09, 0.982, -0.074, 192.0, 253.0, 48.0, 30.0, 176.0, 253.0, 176.0, 0.0, 0.0, 0.0, 1.696108710641274E9, 0.0, 2023-09-30 16:18:30.641
19.0, 154191.63157840152, 154534.35087613476, -159757.2606512619, -160303.5372857496, 154653.68683978164, -169908.97594797326, 65704.60685546481, 79193.77287552034, -0.09, 0.982, -0.074, 192.0, 0.0, 0.0, 0.0, 0.0, 0.0, 0.0, 0.0, 0.0, 0.0, 1.6961087106412876E9, 0.0, 2023-09-30 16:18:30.641
20.0, 153774.97271001016, 154524.49375682996, -159761.59688968622, -160192.73968848464, 154645.99783968902, -169873.7495987117, 65828.07789183591, 79253.56379193829, -0.09, 0.982, -0.074, 192.0, 0.0, 0.0, 0.0, 0.0, 0.0, 0.0, 0.0, 0.0, 0.0, 1.6961087106413012E9, 0.0, 2023-09-30 16:18:30.641
21.0, 153389.7627460674, 154514.72604450298, -159742.73201736595, -160162.6542404478, 154637.88415645174, -169856.67286594782, 65979.60036749845, 79102.98008954288, -0.09, 0.982, -0.074, 192.0, 0.0, 0.0, 0.0, 0.0, 0.0, 0.0, 0.0, 0.0, 0.0, 1.696108710641318E9, 0.0, 2023-09-30 16:18:30.641
22.0, 153660.9788132881, 154518.90582071614, -159725.81174681327, -160343.34574262451, 154639.87346170825, -169888.16647388536, 65831.72122618214, 79003.96186160587, -0.09, 0.982, -0.074, 192.0, 0.0, 0.0, 0.0, 0.0, 0.0, 0.0, 0.0, 0.0, 0.0, 1.6961087106413355E9, 0.0, 2023-09-30 16:18:30.641
23.0, 154083.40443174893, 154524.7172742745, -159743.51432842188, -160332.7957192416, 154644.25440362148, -169902.51629382567, 65623.6935405366, 79163.15098561656, -0.09, 0.982, -0.074, 192.0, 0.0, 0.0, 0.0, 0.0, 0.0, 0.0, 0.0, 0.0, 0.0, 1.6961087106413786E9, 0.0, 2023-09-30 16:18:30.641
24.0, 153741.4897968161, 154519.59872479425, -159759.5181774519, -160202.79797348953, 154640.92399369765, -169870.9556306548, 65699.39889900672, 79274.10504509271, -0.09, 0.982, -0.074, 192.0, 0.0, 0.0, 0.0, 0.0, 0.0, 0.0, 0.0, 0.0, 0.0, 1.6961087106414125E9, 0.0, 2023-09-30 16:18:30.641
25.0, 153341.10299838817, 154510.85919271223, -159742.01676154337, -160149.08673156344, 154634.21847036105, -169850.10145307798, 65852.17307235874, 79147.39300577558, -0.09, 0.982, -0.074, 192.0, 0.0, 0.0, 0.0, 0.0, 0.0, 0.0, 0.0, 0.0, 0.0, 1.6961087106414452E9, 0.0, 2023-09-30 16:18:30.641
26.0, 153482.5224855569, 154514.72604450298, -159723.82244155675, -160281.83374188349, 154636.56540352886, -169875.2024621013, 65753.49012058855, 79021.21740832536, -0.09, 0.982, -0.074, 192.0, 0.0, 0.0, 0.0, 0.0, 0.0, 0.0, 0.0, 0.0, 0.0, 1.6961087106414788E9, 0.0, 2023-09-30 16:18:30.641
27.0, 154003.98868369922, 154523.84555624076, -159736.6523428741, -160361.87533877796, 154643.33798209883, -169901.24224439173, 65508.06796646929, 79127.2764357658, -0.09, 0.982, -0.074, 192.0, 0.0, 0.0, 0.0, 0.0, 0.0, 0.0, 0.0, 0.0, 0.0, 1.6961087106415548E9, 0.0, 2023-09-30 16:18:30.641
28.0, 153730.67155249973, 154517.05062592635, -159752.32091573728, -160196.9194646978, 154638.19708087412, -169869.592174243, 65545.0154000539, 79242.23145749944, -0.09, 0.982, -0.074, 192.0, 0.0, 0.0, 0.0, 0.0, 0.0, 0.0, 0.0, 0.0, 0.0, 1.696108710641588E9, 0.0, 2023-09-30 16:18:30.641
29.0, 153280.55212265876, 154507.48407929947, -159739.04397953083, -160129.28308597603, 154631.06687439285, -169845.96638035376, 65707.42317526617, 79086.37274341259, -0.094, 0.98, -0.078, 192.0, 253.0, 16.0, 30.0, 160.0, 253.0, 144.0, 0.0, 0.0, 0.0, 1.6961087106416185E9, 0.0, 2023-09-30 16:18:30.641
30.0, 153260.39084916006, 154506.65706475463, -159722.86131654517, -160243.321686187, 154629.43519704763, -169860.9420491388, 65688.11126805679, 78887.375162527, -0.094, 0.98, -0.078, 192.0, 0.0, 0.0, 0.0, 0.0, 0.0, 0.0, 0.0, 0.0, 0.0, 1.6961087106858244E9, 0.0, 2023-09-30 16:18:30.685
31.0, 153840.44096951975, 154517.58706779327, -159729.38802592614, -160399.2698072517, 154637.37006632925, -169896.54837805612, 65444.87958489414, 78915.96304368533, -0.094, 0.98, -0.078, 192.0, 0.0, 0.0, 0.0, 0.0, 0.0, 0.0, 0.0, 0.0, 0.0, 1.6961087106858609E9, 0.0, 2023-09-30 16:18:30.685
32.0, 153693.9252846152, 154514.32371310279, -159749.7504651249, -160207.98357820316, 154635.24665060602, -169870.8438719325, 65465.689058982025, 79066.90437399202, -0.094, 0.98, -0.078, 192.0, 0.0, 0.0, 0.0, 0.0, 0.0, 0.0, 0.0, 0.0, 0.0, 1.696108710685877E9, 0.0, 2023-09-30 16:18:30.685
33.0, 153275.00889003385, 154502.99137866395, -159743.2014039995, -160176.89230166582, 154626.3059528239, -169840.2890372621, 65657.42232291965, 78990.28259399922, -0.094, 0.98, -0.078, 192.0, 0.0, 0.0, 0.0, 0.0, 0.0, 0.0, 0.0, 0.0, 0.0, 1.696108710685892E9, 0.0, 2023-09-30 16:18:30.685
34.0, 153168.12284804857, 154500.91266642962, -159723.82244155675, -160190.03512740554, 154624.18253710063, -169845.7428629092, 65722.75647196251, 78841.77760383817, -0.094, 0.98, -0.078, 192.0, 0.0, 0.0, 0.0, 0.0, 0.0, 0.0, 0.0, 0.0, 0.0, 1.696108710685907E9, 0.0, 2023-09-30 16:18:30.685
35.0, 153776.8949600333, 154509.83101246727, -159721.07317698875, -160372.38065867196, 154629.56930751435, -169884.12080813895, 65496.1097831857, 78869.20319428483, -0.094, 0.98, -0.078, 192.0, 0.0, 0.0, 0.0, 0.0, 0.0, 0.0, 0.0, 0.0, 0.0, 1.6961087106859212E9, 0.0, 2023-09-30 16:18:30.685
36.0, 153798.0620620325, 154507.79700372185, -159745.12365402267, -160211.42574684927, 154628.18349935813, -169866.842909675, 65470.22646310645, 79061.98699021185, -0.094, 0.98, -0.078, 192.0, 0.0, 0.0, 0.0, 0.0, 0.0, 0.0, 0.0, 0.0, 0.0, 1.696108710685936E9, 0.0, 2023-09-30 16:18:30.685
37.0, 153384.9124175206, 154502.52199203038, -159749.32578198027, -160199.37815658786, 154625.43423479013, -169841.4289762293, 65651.72262808355, 79023.56434149317, -0.094, 0.98, -0.078, 192.0, 0.0, 0.0, 0.0, 0.0, 0.0, 0.0, 0.0, 0.0, 0.0, 1.6961087106859505E9, 0.0, 2023-09-30 16:18:30.685
38.0, 153180.84099064363, 154497.4704977835, -159721.38610141113, -160171.4608277632, 154621.18740334362, -169838.8808773614, 65766.40942888372, 78848.10314751901, -0.094, 0.98, -0.078, 192.0, 0.0, 0.0, 0.0, 0.0, 0.0, 0.0, 0.0, 0.0, 0.0, 1.696108710685964E9, 0.0, 2023-09-30 16:18:30.685
39.0, 153716.96993314862, 154505.62888450967, -159714.76998505235, -160376.42632441837, 154625.9483249126, -169877.7952644581, 65559.85695837224, 78810.1498854339, -0.09, 0.978, -0.076, 192.0, 253.0, 48.0, 30.0, 144.0, 253.0, 160.0, 0.0, 0.0, 0.0, 1.6961087107419534E9, 0.0, 2023-09-30 16:18:30.741
40.0, 153877.7683827601, 154507.01469266592, -159739.8039388423, -160250.4742444127, 154627.2000226021, -169869.838043432, 65472.46163755198, 79000.47498947084, -0.09, 0.978, -0.076, 192.0, 0.0, 0.0, 0.0, 0.0, 0.0, 0.0, 0.0, 0.0, 0.0, 1.6961087107420137E9, 0.0, 2023-09-30 16:18:30.742
41.0, 153456.43799977755, 154499.52685827337, -159741.56972665427, -160198.95347344322, 154621.96971439954, -169836.19866802677, 65635.36115114226, 79011.29323378722, -0.09, 0.978, -0.076, 192.0, 0.0, 0.0, 0.0, 0.0, 0.0, 0.0, 0.0, 0.0, 0.0, 1.6961087107420287E9, 0.0, 2023-09-30 16:18:30.742
42.0, 153156.5893479096, 154494.45301228203, -159727.51047939187, -160176.37821154337, 154618.41578703115, -169824.88868533238, 65790.61636812883, 78837.59782762502, -0.09, 0.978, -0.076, 192.0, 0.0, 0.0, 0.0, 0.0, 0.0, 0.0, 0.0, 0.0, 0.0, 1.6961087107420435E9, 0.0, 2023-09-30 16:18:30.742
43.0, 153572.4435535006, 154503.50546878643, -159710.27728441684, -160336.08142567653, 154624.4507580341, -169861.07615960552, 65624.45349984807, 78760.59606797648, -0.09, 0.978, -0.076, 192.0, 0.0, 0.0, 0.0, 0.0, 0.0, 0.0, 0.0, 0.0, 0.0, 1.6961087107420564E9, 0.0, 2023-09-30 16:18:30.742
44.0, 153902.89174352787, 154511.06035841233, -159742.57555515476, -160266.83572135397, 154630.9551156706, -169866.70879920828, 65486.811457492295, 78949.04362547919, -0.09, 0.978, -0.076, 192.0, 0.0, 0.0, 0.0, 0.0, 0.0, 0.0, 0.0, 0.0, 0.0, 1.6961087107420685E9, 0.0, 2023-09-30 16:18:30.742
45.0, 153527.02480876743, 154502.18671586356, -159753.41615121558, -160189.1187058829, 154624.36135105626, -169829.60490341246, 65626.19693591559, 79031.78978345272, -0.09, 0.978, -0.076, 192.0, 0.0, 0.0, 0.0, 0.0, 0.0, 0.0, 0.0, 0.0, 0.0, 1.6961087107420812E9, 0.0, 2023-09-30 16:18:30.742
46.0, 153172.77201089528, 154497.9175326726, -159742.12852026566, -160192.78439197355, 154622.0591213774, -169814.67393811632, 65811.22467651662, 78908.18463661488, -0.09, 0.978, -0.076, 192.0, 0.0, 0.0, 0.0, 0.0, 0.0, 0.0, 0.0, 0.0, 0.0, 1.6961087107420936E9, 0.0, 2023-09-30 16:18:30.742
47.0, 153467.05507839384, 154506.92528568808, -159714.14413620761, -160291.333233277, 154628.83169994733, -169848.335665266, 65705.72444268757, 78825.93021701936, -0.09, 0.978, -0.076, 192.0, 0.0, 0.0, 0.0, 0.0, 0.0, 0.0, 0.0, 0.0, 0.0, 1.6961087107421062E9, 0.0, 2023-09-30 16:18:30.742
48.0, 153951.86441562945, 154517.94469570456, -159743.98371505545, -160290.8861983879, 154638.04061866293, -169869.5474707541, 65521.83664105376, 79006.12998081803, -0.09, 0.978, -0.076, 192.0, 0.0, 0.0, 0.0, 0.0, 0.0, 0.0, 0.0, 0.0, 0.0, 1.6961087107421186E9, 0.0, 2023-09-30 16:18:30.742
49.0, 153649.57942361588, 154514.1225474027, -159764.88259612114, -160182.68140347974, 154636.34188608432, -169839.9314093508, 65629.88497375071, 79151.4833750109, -0.08, 0.978, -0.084, 192.0, 253.0, 128.0, 30.0, 144.0, 253.0, 96.0, 0.0, 0.0, 0.0, 1.6961087107421312E9, 0.0, 2023-09-30 16:18:30.742
50.0, 153275.94766330096, 154504.39953856464, -159749.9069273361, -160192.29265359553, 154628.76464471396, -169818.1831619958, 65828.70374068066, 79040.52931553476, -0.08, 0.978, -0.084, 192.0, 0.0, 0.0, 0.0, 0.0, 0.0, 0.0, 0.0, 0.0, 0.0, 1.6961087111844068E9, 0.0, 2023-09-30 16:18:31.184
51.0, 153419.78113887087, 154508.17698337758, -159728.20338346998, -160261.31484047353, 154630.86570869276, -169842.85948787446, 65784.78256282599, 78917.30414835265, -0.08, 0.978, -0.084, 192.0, 0.0, 0.0, 0.0, 0.0, 0.0, 0.0, 0.0, 0.0, 0.0, 1.696108711184574E9, 0.0, 2023-09-30 16:18:31.184
52.0, 153980.27348283216, 154516.7153497595, -159733.18782248354, -160330.47113781824, 154636.87832795124, -169872.18497659982, 65564.64023168567, 79030.2028095964, -0.08, 0.978, -0.084, 192.0, 0.0, 0.0, 0.0, 0.0, 0.0, 0.0, 0.0, 0.0, 0.0, 1.6961087111846044E9, 0.0, 2023-09-30 16:18:31.184
53.0, 153766.00966048357, 154510.9709514345, -159758.78056988487, -160181.13913311233, 154632.74325522702, -169842.85948787446, 65627.9403719831, 79196.3433261327, -0.08, 0.978, -0.084, 192.0, 0.0, 0.0, 0.0, 0.0, 0.0, 0.0, 0.0, 0.0, 0.0, 1.6961087111846836E9, 0.0, 2023-09-30 16:18:31.184
54.0, 153368.37212662367, 154502.29847458584, -159750.46572094748, -160202.41799383378, 154626.46241503506, -169818.51843816263, 65833.2411448051, 79110.33381346868, -0.08, 0.978, -0.084, 192.0, 0.0, 0.0, 0.0, 0.0, 0.0, 0.0, 0.0, 0.0, 0.0, 1.696108711184721E9, 0.0, 2023-09-30 16:18:31.184
55.0, 153361.95717596498, 154501.98555016346, -159726.48229914694, -160240.68418034128, 154625.41188304566, -169831.81772611354, 65863.23718586411, 78968.93667804441, -0.08, 0.978, -0.084, 192.0, 0.0, 0.0, 0.0, 0.0, 0.0, 0.0, 0.0, 0.0, 0.0, 1.696108711184748E9, 0.0, 2023-09-30 16:18:31.184
56.0, 153975.60196824098, 154513.16142239113, -159729.7009503485, -160361.13773121094, 154633.48086279404, -169869.61452598748, 65636.65755232067, 79034.29317883172, -0.08, 0.978, -0.084, 192.0, 0.0, 0.0, 0.0, 0.0, 0.0, 0.0, 0.0, 0.0, 0.0, 1.6961087111847668E9, 0.0, 2023-09-30 16:18:31.184
57.0, 153889.03366196557, 154514.18960263606, -159757.9982588289, -160197.34414784244, 154635.69368549512, -169850.10145307798, 65656.64001186371, 79233.02253878386, -0.08, 0.978, -0.084, 192.0, 0.0, 0.0, 0.0, 0.0, 0.0, 0.0, 0.0, 0.0, 0.0, 1.6961087111847856E9, 0.0, 2023-09-30 16:18:31.184
58.0, 153502.99668347798, 154508.13227988867, -159757.4171134731, -160205.16725840178, 154631.78213021543, -169825.31336847704, 65856.26344159406, 79190.53187257431, -0.08, 0.978, -0.084, 192.0, 0.0, 0.0, 0.0, 0.0, 0.0, 0.0, 0.0, 0.0, 0.0, 1.6961087111848044E9, 0.0, 2023-09-30 16:18:31.184
59.0, 153407.3088654648, 154506.45589905453, -159731.48908990494, -160233.2186976932, 154630.06104589236, -169831.92948483583, 65937.80260536702, 79046.22901037085, -0.078, 0.982, -0.084, 192.0, 253.0, 144.0, 30.0, 176.0, 253.0, 96.0, 0.0, 0.0, 0.0, 1.6961087111848216E9, 0.0, 2023-09-30 16:18:31.184
60.0, 154010.18011691334, 154517.40825383764, -159725.49882239092, -160420.19104006185, 154637.72769424054, -169875.62714524593, 65705.92560838767, 79066.59144956965, -0.078, 0.982, -0.084, 192.0, 0.0, 0.0, 0.0, 0.0, 0.0, 0.0, 0.0, 0.0, 0.0, 1.6961087111848407E9, 0.0, 2023-09-30 16:18:31.184
61.0, 154086.35486201703, 154516.11185265923, -159745.57068891177, -160241.4217879083, 154636.92303144015, -169862.1937468283, 65652.86256705076, 79277.45780676101, -0.078, 0.982, -0.084, 192.0, 0.0, 0.0, 0.0, 0.0, 0.0, 0.0, 0.0, 0.0, 0.0, 1.6961087111848605E9, 0.0, 2023-09-30 16:18:31.184
62.0, 153644.10324622432, 154505.18184962057, -159737.79228184134, -160158.04978109, 154628.2058511026, -169831.10247029096, 65814.42097597373, 79271.48989099145, -0.078, 0.982, -0.084, 192.0, 0.0, 0.0, 0.0, 0.0, 0.0, 0.0, 0.0, 0.0, 0.0, 1.6961087111848788E9, 0.0, 2023-09-30 16:18:31.184
63.0, 153358.58206255222, 154498.99041640645, -159720.06734848826, -160171.17025508528, 154622.97554290004, -169827.07915628902, 65925.33033196095, 79111.89843558054, -0.078, 0.982, -0.084, 192.0, 0.0, 0.0, 0.0, 0.0, 0.0, 0.0, 0.0, 0.0, 0.0, 1.6961087111848977E9, 0.0, 2023-09-30 16:18:31.184
64.0, 153818.71507390917, 154505.58418102076, -159705.8069355258, -160386.3504989565, 154626.507118524, -169866.6864474638, 65712.07233811288, 79069.85480426012, -0.078, 0.982, -0.084, 192.0, 0.0, 0.0, 0.0, 0.0, 0.0, 0.0, 0.0, 0.0, 0.0, 1.696108711184918E9, 0.0, 2023-09-30 16:18:31.184
65.0, 153996.32203535104, 154508.69107350006, -159735.49005216244, -160263.2370904967, 154629.3457900698, -169864.8536044185, 65601.76647922593, 79255.21782102798, -0.078, 0.982, -0.084, 192.0, 0.0, 0.0, 0.0, 0.0, 0.0, 0.0, 0.0, 0.0, 0.0, 1.6961087111849408E9, 0.0, 2023-09-30 16:18:31.184
66.0, 153556.08207655934, 154498.16340186162, -159737.76993009687, -160186.816476204, 154621.16505159915, -169830.54367667958, 65751.27729788749, 79280.74351319594, -0.078, 0.982, -0.084, 192.0, 0.0, 0.0, 0.0, 0.0, 0.0, 0.0, 0.0, 0.0, 0.0, 1.6961087111849625E9, 0.0, 2023-09-30 16:18:31.184
67.0, 153200.55522925322, 154491.5696372473, -159719.68736883253, -160142.29180124903, 154616.2029643301, -169819.52426666312, 65908.56652361948, 79115.31825248222, -0.078, 0.982, -0.084, 192.0, 0.0, 0.0, 0.0, 0.0, 0.0, 0.0, 0.0, 0.0, 0.0, 1.6961087111849847E9, 0.0, 2023-09-30 16:18:31.184
68.0, 153560.01598358346, 154500.13035537367, -159701.5377523348, -160328.9959226842, 154621.81325218835, -169858.32689503752, 65744.50471931753, 79018.57990247964, -0.078, 0.982, -0.084, 192.0, 0.0, 0.0, 0.0, 0.0, 0.0, 0.0, 0.0, 0.0, 0.0, 1.696108711185013E9, 0.0, 2023-09-30 16:18:31.185
69.0, 153906.80329880756, 154506.61236126572, -159731.8020143273, -160281.94550060577, 154627.06591213535, -169869.77098819864, 65579.39238302618, 79174.46096831096, -0.078, 0.982, -0.084, 192.0, 0.0, 0.0, 0.0, 0.0, 0.0, 0.0, 0.0, 0.0, 0.0, 1.6961087111850352E9, 0.0, 2023-09-30 16:18:31.185
70.0, 153531.85278556976, 154499.25863733992, -159740.54154640934, -160183.4637145357, 154621.9026591662, -169838.21032502776, 65699.7118234291, 79243.39374821112, -0.07200000000000001, 0.99, -0.088, 192.0, 253.0, 192.0, 30.0, 240.0, 253.0, 64.0, 0.0, 0.0, 0.0, 1.6961087111850576E9, 0.0, 2023-09-30 16:18:31.185
71.0, 153149.5038449173, 154487.8145441788, -159717.22867694244, -160130.6018388989, 154612.47022300604, -169819.41250794084, 65871.44027607921, 79091.93832778196, -0.07200000000000001, 0.99, -0.088, 192.0, 0.0, 0.0, 0.0, 0.0, 0.0, 0.0, 0.0, 0.0, 0.0, 1.6961087111850867E9, 0.0, 2023-09-30 16:18:31.185
72.0, 153393.0037490134, 154490.42969828006, -159704.42112736954, -160286.21468379674, 154612.67138870613, -169848.64858968838, 65764.53188234947, 78973.96582054684, -0.07200000000000001, 0.99, -0.088, 192.0, 0.0, 0.0, 0.0, 0.0, 0.0, 0.0, 0.0, 0.0, 0.0, 1.6961087111851196E9, 0.0, 2023-09-30 16:18:31.185
73.0, 153881.65758629533, 154497.60460825023, -159717.31808392025, -160322.51391679214, 154617.72288295304, -169870.37448529893, 65555.5207199479, 79110.91495882452, -0.07200000000000001, 0.99, -0.088, 192.0, 0.0, 0.0, 0.0, 0.0, 0.0, 0.0, 0.0, 0.0, 0.0, 1.6961087111851375E9, 0.0, 2023-09-30 16:18:31.185
74.0, 153571.21420755557, 154493.78245994836, -159732.38315968314, -160181.18383660124, 154615.86768816324, -169842.12188030744, 65635.67407556463, 79234.6542161291, -0.07200000000000001, 0.99, -0.088, 192.0, 0.0, 0.0, 0.0, 0.0, 0.0, 0.0, 0.0, 0.0, 0.0, 1.696108711185158E9, 0.0, 2023-09-30 16:18:31.185
75.0, 153156.00820255378, 154483.45595401002, -159714.88174377463, -160133.19464125572, 154607.82106015933, -169819.36780445193, 65817.281999264, 79113.99949955934, -0.07200000000000001, 0.99, -0.088, 192.0, 0.0, 0.0, 0.0, 0.0, 0.0, 0.0, 0.0, 0.0, 0.0, 1.6961087111851838E9, 0.0, 2023-09-30 16:18:31.185
76.0, 153226.8632324771, 154484.7747069329, -159694.36284236467, -160238.80663380702, 154607.5528392259, -169840.40079598437, 65768.46578937361, 78976.84919558158, -0.07200000000000001, 0.99, -0.088, 192.0, 0.0, 0.0, 0.0, 0.0, 0.0, 0.0, 0.0, 0.0, 0.0, 1.6961087111852014E9, 0.0, 2023-09-30 16:18:31.185
77.0, 153792.87645731884, 154495.50354427143, -159709.62908382763, -160352.01821947316, 154615.42065327414, -169873.57078475604, 65527.60339112323, 79079.64486833154, -0.07200000000000001, 0.99, -0.088, 192.0, 0.0, 0.0, 0.0, 0.0, 0.0, 0.0, 0.0, 0.0, 0.0, 1.6961087111852224E9, 0.0, 2023-09-30 16:18:31.185
78.0, 153577.67386170317, 154492.93309365906, -159733.81367132827, -160190.28099659455, 154614.57128698484, -169848.5368309661, 65568.86471138772, 79251.84270761523, -0.07200000000000001, 0.99, -0.088, 192.0, 0.0, 0.0, 0.0, 0.0, 0.0, 0.0, 0.0, 0.0, 0.0, 1.6961087111852434E9, 0.0, 2023-09-30 16:18:31.185
79.0, 153147.0451530272, 154483.59006447674, -159717.6533600871, -160143.02940881604, 154607.82106015933, -169823.90520857635, 65754.7641700225, 79158.8818024256, -0.07200000000000001, 0.99, -0.088, 192.0, 0.0, 0.0, 0.0, 0.0, 0.0, 0.0, 0.0, 0.0, 0.0, 1.6961087111852663E9, 0.0, 2023-09-30 16:18:31.185
80.0, 153081.0851551396, 154482.85245690972, -159700.01783371184, -160205.88251422436, 154606.47995549202, -169836.46688896025, 65778.70288833414, 78995.69171615741, -0.07, 0.986, -0.092, 192.0, 253.0, 208.0, 30.0, 208.0, 253.0, 32.0, 0.0, 0.0, 0.0, 1.6961087111852815E9, 0.0, 2023-09-30 16:18:31.185
81.0, 153678.65904315223, 154493.469535526, -159702.81180176878, -160377.72272559677, 154613.63251371772, -169875.67184873484, 65541.90850757463, 79032.16976310847, -0.07, 0.986, -0.092, 192.0, 0.0, 0.0, 0.0, 0.0, 0.0, 0.0, 0.0, 0.0, 0.0, 1.696108711185296E9, 0.0, 2023-09-30 16:18:31.185
82.0, 153595.86818168976, 154490.69791921353, -159727.28696194733, -160193.47729605166, 154611.8443741613, -169854.75061592468, 65540.14271976265, 79208.59208209421, -0.07, 0.986, -0.092, 192.0, 0.0, 0.0, 0.0, 0.0, 0.0, 0.0, 0.0, 0.0, 0.0, 1.6961087111853096E9, 0.0, 2023-09-30 16:18:31.185
83.0, 153152.9907170523, 154482.13720108714, -159720.0002932549, -160148.46088271867, 154606.05527234738, -169827.50383943366, 65724.52225977449, 79153.71854945643, -0.07, 0.986, -0.092, 192.0, 0.0, 0.0, 0.0, 0.0, 0.0, 0.0, 0.0, 0.0, 0.0, 1.6961087111853228E9, 0.0, 2023-09-30 16:18:31.185
84.0, 152983.22921791425, 154477.957424874, -159703.37059538014, -160159.86027239088, 154602.3448827678, -169829.15786852335, 65812.11874629483, 78993.85887311207, -0.07, 0.986, -0.092, 192.0, 0.0, 0.0, 0.0, 0.0, 0.0, 0.0, 0.0, 0.0, 0.0, 1.6961087111853364E9, 0.0, 2023-09-30 16:18:31.185
85.0, 153561.37943999525, 154486.62990172266, -159694.85458074269, -160359.23783293224, 154607.30697003688, -169869.07808412053, 65591.14940060966, 78998.08335281412, -0.07, 0.986, -0.092, 192.0, 0.0, 0.0, 0.0, 0.0, 0.0, 0.0, 0.0, 0.0, 0.0, 1.6961087111853502E9, 0.0, 2023-09-30 16:18:31.185
86.0, 153644.28206017998, 154489.0662418683, -159724.60475261268, -160208.63177879236, 154609.96682762704, -169859.4891857492, 65539.69568487354, 79210.04494548381, -0.07, 0.986, -0.092, 192.0, 0.0, 0.0, 0.0, 0.0, 0.0, 0.0, 0.0, 0.0, 0.0, 1.6961087111853628E9, 0.0, 2023-09-30 16:18:31.185
87.0, 153234.28401163628, 154481.5113522424, -159730.48326140444, -160188.93989192724, 154604.96003686907, -169829.64960690137, 65720.02955913896, 79221.198465967, -0.07, 0.986, -0.092, 192.0, 0.0, 0.0, 0.0, 0.0, 0.0, 0.0, 0.0, 0.0, 0.0, 1.6961087111853752E9, 0.0, 2023-09-30 16:18:31.185
88.0, 153001.0659099896, 154477.44333475153, -159709.0479384718, -160164.9117666378, 154601.96490311206, -169824.91103707685, 65866.9475754437, 79077.09676946363, -0.07, 0.986, -0.092, 192.0, 0.0, 0.0, 0.0, 0.0, 0.0, 0.0, 0.0, 0.0, 0.0, 1.6961087111853883E9, 0.0, 2023-09-30 16:18:31.185
89.0, 153524.02967501042, 154487.0098813784, -159691.65828128558, -160337.42253034384, 154607.999874115, -169865.8370811745, 65686.21136977809, 79044.55262953672, -0.07, 0.986, -0.092, 192.0, 0.0, 0.0, 0.0, 0.0, 0.0, 0.0, 0.0, 0.0, 0.0, 1.6961087111854012E9, 0.0, 2023-09-30 16:18:31.185
90.0, 153814.26707676257, 154490.20618083552, -159717.72041532045, -160228.50247961315, 154610.48091774952, -169865.97119164123, 65582.11929584973, 79246.18771626803, -0.078, 0.984, -0.094, 192.0, 253.0, 144.0, 30.0, 192.0, 253.0, 16.0, 0.0, 0.0, 0.0, 1.6961087111854136E9, 0.0, 2023-09-30 16:18:31.185
91.0, 153457.8238079338, 154482.85245690972, -159732.69608410553, -160175.28297606503, 154605.4517752471, -169834.56699068155, 65745.64465828474, 79298.13317038216, -0.078, 0.984, -0.094, 192.0, 0.0, 0.0, 0.0, 0.0, 0.0, 0.0, 0.0, 0.0, 0.0, 1.6961087111854267E9, 0.0, 2023-09-30 16:18:31.185
92.0, 153146.5981181381, 154478.40445976311, -159714.14413620761, -160160.6425834468, 154602.52369672342, -169824.19578125427, 65927.56550640649, 79145.64956970807, -0.078, 0.984, -0.094, 192.0, 0.0, 0.0, 0.0, 0.0, 0.0, 0.0, 0.0, 0.0, 0.0, 1.6961087111854405E9, 0.0, 2023-09-30 16:18:31.185
93.0, 153529.41644542414, 154485.28879705534, -159692.70881327498, -160310.66749223083, 154606.5917142143, -169860.5397177386, 65792.40450768525, 79052.7110162629, -0.078, 0.984, -0.094, 192.0, 0.0, 0.0, 0.0, 0.0, 0.0, 0.0, 0.0, 0.0, 0.0, 1.696108711185464E9, 0.0, 2023-09-30 16:18:31.185
94.0, 153962.25797680116, 154490.1167738577, -159712.98184549593, -160276.46932321423, 154610.05623460488, -169872.58730800002, 65629.16971792815, 79214.26942518586, -0.078, 0.984, -0.094, 192.0, 0.0, 0.0, 0.0, 0.0, 0.0, 0.0, 0.0, 0.0, 0.0, 1.6961087111854763E9, 0.0, 2023-09-30 16:18:31.185
95.0, 153623.42788260317, 154484.3723755327, -159728.82923231475, -160180.84856043442, 154606.36819676976, -169842.1889355408, 65746.69519027414, 79297.37321107069, -0.078, 0.984, -0.094, 192.0, 0.0, 0.0, 0.0, 0.0, 0.0, 0.0, 0.0, 0.0, 0.0, 1.6961087111854887E9, 0.0, 2023-09-30 16:18:31.185
96.0, 153226.43854933247, 154478.98560511894, -159713.42888038504, -160134.13341452283, 154603.0824903348, -169827.63794990038, 65928.92896281826, 79144.53198248529, -0.078, 0.984, -0.094, 192.0, 0.0, 0.0, 0.0, 0.0, 0.0, 0.0, 0.0, 0.0, 0.0, 1.6961087111855016E9, 0.0, 2023-09-30 16:18:31.185
97.0, 153421.77044412738, 154482.89716039863, -159695.90511273209, -160267.1262940319, 154604.96003686907, -169856.9857903702, 65837.75619718507, 79005.28061452873, -0.078, 0.984, -0.094, 192.0, 0.0, 0.0, 0.0, 0.0, 0.0, 0.0, 0.0, 0.0, 0.0, 1.696108711185514E9, 0.0, 2023-09-30 16:18:31.185
98.0, 153927.52336591762, 154487.54632324533, -159701.8506767572, -160320.03287315762, 154607.37402527023, -169878.89049993642, 65617.85973523375, 79115.36295597113, -0.078, 0.984, -0.094, 192.0, 0.0, 0.0, 0.0, 0.0, 0.0, 0.0, 0.0, 0.0, 0.0, 1.6961087111855264E9, 0.0, 2023-09-30 16:18:31.185
99.0, 153638.58236534387, 154480.48317199745, -159712.89243851812, -160160.77669391356, 154602.05431008988, -169848.76034841067, 65684.93732034414, 79235.34712020721, -0.078, 0.984, -0.094, 192.0, 0.0, 0.0, 0.0, 0.0, 0.0, 0.0, 0.0, 0.0, 0.0, 1.6961087111855388E9, 0.0, 2023-09-30 16:18:31.185
100.0, 153202.63394148755, 154471.5201224709, -159702.36476687965, -160118.71071084865, 154595.48289722, -169827.57089466703, 65869.0486394225, 79107.85276983413, -0.082, 0.982, -0.08600000000000001, 192.0, 253.0, 112.0, 30.0, 176.0, 253.0, 80.0, 0.0, 0.0, 0.0, 1.696108711185551E9, 0.0, 2023-09-30 16:18:31.185
101.0, 153264.23534920637, 154475.4093260061, -159685.690365516, -160218.35478763044, 154598.0309960879, -169850.74965366718, 65840.14783384178, 78953.20104994786, -0.082, 0.982, -0.08600000000000001, 192.0, 0.0, 0.0, 0.0, 0.0, 0.0, 0.0, 0.0, 0.0, 0.0, 1.6961087111855633E9, 0.0, 2023-09-30 16:18:31.185
102.0, 153855.9754319162, 154484.43943076604, -159694.76517376487, -160341.69171353482, 154604.2447810465, -169884.7466569837, 65603.88989494918, 79034.06966138717, -0.082, 0.982, -0.08600000000000001, 192.0, 0.0, 0.0, 0.0, 0.0, 0.0, 0.0, 0.0, 0.0, 0.0, 1.6961087111855755E9, 0.0, 2023-09-30 16:18:31.185
103.0, 153698.59679920637, 154479.14206733013, -159716.89340077562, -160169.0021358731, 154600.3332257668, -169857.92456363732, 65641.64199133421, 79207.74271580491, -0.082, 0.982, -0.08600000000000001, 192.0, 0.0, 0.0, 0.0, 0.0, 0.0, 0.0, 0.0, 0.0, 0.0, 1.696108711185588E9, 0.0, 2023-09-30 16:18:31.185
104.0, 153274.49479991136, 154472.63770969363, -159718.36861590965, -160160.5084729801, 154596.2875600204, -169833.56116218105, 65848.75325545708, 79137.55823821524, -0.082, 0.982, -0.08600000000000001, 192.0, 0.0, 0.0, 0.0, 0.0, 0.0, 0.0, 0.0, 0.0, 0.0, 1.6961087111856003E9, 0.0, 2023-09-30 16:18:31.185
105.0, 153196.93424665145, 154472.3024335268, -159689.82543824022, -160166.2528713051, 154595.57230419785, -169843.17241229684, 65905.8619625404, 78990.01437306576, -0.082, 0.982, -0.08600000000000001, 192.0, 0.0, 0.0, 0.0, 0.0, 0.0, 0.0, 0.0, 0.0, 0.0, 1.6961087111856124E9, 0.0, 2023-09-30 16:18:31.185
106.0, 153804.09703303542, 154480.93020688655, -159687.5902637947, -160338.62952454443, 154600.8920193782, -169880.07514239254, 65678.99175631902, 79032.23681834183, -0.082, 0.982, -0.08600000000000001, 192.0, 0.0, 0.0, 0.0, 0.0, 0.0, 0.0, 0.0, 0.0, 0.0, 1.6961087111856272E9, 0.0, 2023-09-30 16:18:31.185
107.0, 153793.7034718637, 154479.969081875, -159717.67571183154, -160167.1469410833, 154600.66850193366, -169860.56206948307, 65679.3493842303, 79233.38016669515, -0.082, 0.982, -0.08600000000000001, 192.0, 0.0, 0.0, 0.0, 0.0, 0.0, 0.0, 0.0, 0.0, 0.0, 1.6961087111856403E9, 0.0, 2023-09-30 16:18:31.185
108.0, 153377.5586935948, 154472.704764927, -159725.61058111317, -160170.11972309588, 154595.90758036467, -169831.21422901325, 65884.71721228567, 79210.02259373934, -0.082, 0.982, -0.08600000000000001, 192.0, 0.0, 0.0, 0.0, 0.0, 0.0, 0.0, 0.0, 0.0, 0.0, 1.696108711185653E9, 0.0, 2023-09-30 16:18:31.185
109.0, 153205.96435141138, 154468.52498871388, -159697.78265926632, -160175.1041621094, 154592.2865977629, -169829.22492375673, 66001.95211195375, 79065.25034490232, -0.082, 0.982, -0.08600000000000001, 192.0, 0.0, 0.0, 0.0, 0.0, 0.0, 0.0, 0.0, 0.0, 0.0, 1.696108711185666E9, 0.0, 2023-09-30 16:18:31.185
110.0, 153793.3458439524, 154479.14206733013, -159684.6398335266, -160329.6441232734, 154599.3944524997, -169869.65922947638, 65796.07019377591, 79068.20077517042, -0.082, 0.982, -0.08600000000000001, 192.0, 0.0, 0.0, 0.0, 0.0, 0.0, 0.0, 0.0, 0.0, 0.0, 1.6961087111856866E9, 0.0, 2023-09-30 16:18:31.185
111.0, 153986.1519916239, 154479.79026791934, -159716.78164205333, -160191.17506637276, 154600.0426530889, -169858.2821915486, 65741.35312334933, 79283.85040567523, -0.082, 0.978, -0.082, 192.0, 253.0, 112.0, 30.0, 144.0, 253.0, 112.0, 0.0, 0.0, 0.0, 1.6961087111857066E9, 0.0, 2023-09-30 16:18:31.185
112.0, 153623.07025469188, 154476.07987833978, -159734.03718877284, -160156.41810374477, 154598.56743795486, -169828.82259235653, 65933.08638728695, 79322.20599916053, -0.082, 0.978, -0.082, 192.0, 0.0, 0.0, 0.0, 0.0, 0.0, 0.0, 0.0, 0.0, 0.0, 1.6961087111857295E9, 0.0, 2023-09-30 16:18:31.185
113.0, 153372.21662666998, 154474.82818065028, -159711.01489198385, -160147.00801932908, 154598.41097574367, -169822.67586263132, 66100.97033989076, 79196.946823233, -0.082, 0.978, -0.082, 192.0, 0.0, 0.0, 0.0, 0.0, 0.0, 0.0, 0.0, 0.0, 0.0, 1.6961087111857505E9, 0.0, 2023-09-30 16:18:31.185
114.0, 153844.1066556104, 154484.4170790216, -159689.51251381787, -160292.71904143324, 154605.02709210242, -169861.21027007228, 65932.19231750874, 79167.06254089625, -0.082, 0.978, -0.082, 192.0, 0.0, 0.0, 0.0, 0.0, 0.0, 0.0, 0.0, 0.0, 0.0, 1.6961087111857936E9, 0.0, 2023-09-30 16:18:31.185
115.0, 154170.35271768007, 154489.08859361275, -159714.3005984188, -160219.83000276447, 154608.983350871, -169862.9984096287, 65803.82624910191, 79368.42940669411, -0.082, 0.978, -0.082, 192.0, 0.0, 0.0, 0.0, 0.0, 0.0, 0.0, 0.0, 0.0, 0.0, 1.696108711185814E9, 0.0, 2023-09-30 16:18:31.185
116.0, 153801.3477684674, 154482.1595528316, -159721.85548804468, -160169.5609294845, 154604.17772581312, -169829.56019992355, 65940.88714610186, 79432.98124468104, -0.082, 0.978, -0.082, 192.0, 0.0, 0.0, 0.0, 0.0, 0.0, 0.0, 0.0, 0.0, 0.0, 1.6961087111858385E9, 0.0, 2023-09-30 16:18:31.185
117.0, 153434.957973356, 154475.4093260061, -159700.66603430104, -160138.62611515835, 154599.01447284396, -169814.7409933497, 66102.04322362461, 79281.30230680732, -0.082, 0.978, -0.082, 192.0, 0.0, 0.0, 0.0, 0.0, 0.0, 0.0, 0.0, 0.0, 0.0, 1.6961087111858647E9, 0.0, 2023-09-30 16:18:31.185
118.0, 153743.32263986144, 154480.48317199745, -159682.5387695478, -160309.77342245262, 154601.60727520077, -169847.0392640876, 65957.44978874324, 79180.51829105834, -0.082, 0.978, -0.082, 192.0, 0.0, 0.0, 0.0, 0.0, 0.0, 0.0, 0.0, 0.0, 0.0, 1.6961087111858892E9, 0.0, 2023-09-30 16:18:31.185
119.0, 154190.35752896758, 154485.6240732222, -159701.87302850164, -160297.34585253548, 154605.20590605808, -169859.8021101716, 65769.33750740737, 79337.89692376816, -0.082, 0.978, -0.082, 192.0, 0.0, 0.0, 0.0, 0.0, 0.0, 0.0, 0.0, 0.0, 0.0, 1.6961087111859157E9, 0.0, 2023-09-30 16:18:31.185
120.0, 153901.19301094927, 154477.24216905143, -159714.41235714106, -160155.63579268884, 154598.6344931882, -169824.79927835456, 65874.07778192495, 79439.753823251, -0.082, 0.978, -0.082, 192.0, 0.0, 0.0, 0.0, 0.0, 0.0, 0.0, 0.0, 0.0, 0.0, 1.696108711185933E9, 0.0, 2023-09-30 16:18:31.185
121.0, 153523.6496953547, 154468.52498871388, -159699.45904010048, -160101.16459145126, 154591.75015589598, -169803.60982461093, 66061.72067662724, 79307.3197373533, -0.09, 0.978, -0.088, 192.0, 253.0, 48.0, 30.0, 144.0, 253.0, 64.0, 0.0, 0.0, 0.0, 1.6961087111859524E9, 0.0, 2023-09-30 16:18:31.185
122.0, 153701.61428470782, 154472.97298586048, -159679.3871735796, -160239.74540707417, 154594.41001348617, -169830.25310400166, 65991.13386763739, 79189.88367198511, -0.09, 0.978, -0.088, 192.0, 0.0, 0.0, 0.0, 0.0, 0.0, 0.0, 0.0, 0.0, 0.0, 1.6961087111859732E9, 0.0, 2023-09-30 16:18:31.185
123.0, 154252.6071372756, 154480.08084059725, -159691.41241209657, -160311.0474718866, 154599.26034203297, -169854.8847263914, 65774.56781560992, 79321.33428112678, -0.09, 0.978, -0.088, 192.0, 0.0, 0.0, 0.0, 0.0, 0.0, 0.0, 0.0, 0.0, 0.0, 1.6961087111859972E9, 0.0, 2023-09-30 16:18:31.185
124.0, 154077.66003342392, 154475.09640158372, -159712.8030315403, -160163.21303405918, 154595.9299321091, -169825.78275511062, 65845.22167983314, 79474.9131172792, -0.09, 0.978, -0.088, 192.0, 0.0, 0.0, 0.0, 0.0, 0.0, 0.0, 0.0, 0.0, 0.0, 1.6961087111860175E9, 0.0, 2023-09-30 16:18:31.186
125.0, 153665.2256447346, 154466.49097996842, -159696.4862580879, -160114.3968241688, 154589.44792621708, -169802.827513555, 66036.30674318156, 79377.2359940095, -0.09, 0.978, -0.088, 192.0, 0.0, 0.0, 0.0, 0.0, 0.0, 0.0, 0.0, 0.0, 0.0, 1.696108711186041E9, 0.0, 2023-09-30 16:18:31.186
126.0, 153647.18778695917, 154465.37339274568, -159675.56502527776, -160190.6162727614, 154587.59273142728, -169819.4348596853, 66020.97344648522, 79232.37433819466, -0.09, 0.978, -0.088, 192.0, 0.0, 0.0, 0.0, 0.0, 0.0, 0.0, 0.0, 0.0, 0.0, 1.6961087111860633E9, 0.0, 2023-09-30 16:18:31.186
127.0, 154186.3342149656, 154471.54247421533, -159678.51545554586, -160348.53134733814, 154591.12430705124, -169852.8283659015, 65767.28114691748, 79297.10499013722, -0.09, 0.978, -0.088, 192.0, 0.0, 0.0, 0.0, 0.0, 0.0, 0.0, 0.0, 0.0, 0.0, 1.6961087111860883E9, 0.0, 2023-09-30 16:18:31.186
128.0, 154059.33160297057, 154465.73102065697, -159686.22680738292, -160147.63386817384, 154586.40808897116, -169828.30850223405, 65764.64364107176, 79455.44474785862, -0.09, 0.978, -0.088, 192.0, 0.0, 0.0, 0.0, 0.0, 0.0, 0.0, 0.0, 0.0, 0.0, 1.69610871118613E9, 0.0, 2023-09-30 16:18:31.186
129.0, 153586.011062385, 154455.8068461188, -159677.30846134527, -160070.20742538065, 154578.80849585636, -169803.16278972183, 65930.91826807479, 79361.2768484684, -0.09, 0.978, -0.088, 192.0, 0.0, 0.0, 0.0, 0.0, 0.0, 0.0, 0.0, 0.0, 0.0, 1.6961087111861684E9, 0.0, 2023-09-30 16:18:31.186
130.0, 153429.83942387576, 154454.01870656238, -159670.06649614175, -160149.75728389708, 154576.97565281103, -169813.24342647116, 65969.13975109336, 79184.3404393602, -0.09, 0.978, -0.088, 192.0, 0.0, 0.0, 0.0, 0.0, 0.0, 0.0, 0.0, 0.0, 0.0, 1.6961087111861916E9, 0.0, 2023-09-30 16:18:31.186
131.0, 153982.95569216678, 154461.3053752548, -159671.00526940887, -160354.14163519643, 154581.11072553525, -169852.7836624126, 65721.9071056732, 79197.66207905556, -0.08600000000000001, 0.986, -0.088, 192.0, 253.0, 80.0, 30.0, 208.0, 253.0, 64.0, 0.0, 0.0, 0.0, 1.6961087111862175E9, 0.0, 2023-09-30 16:18:31.186
132.0, 153981.7486979662, 154459.74075314292, -159680.54946429128, -160167.2586998056, 154580.17195226814, -169837.40566222736, 65680.95870983109, 79380.74521788898, -0.08600000000000001, 0.986, -0.088, 192.0, 0.0, 0.0, 0.0, 0.0, 0.0, 0.0, 0.0, 0.0, 0.0, 1.6961087111862416E9, 0.0, 2023-09-30 16:18:31.186
133.0, 153500.2250671655, 154446.17324425856, -159665.12676061713, -160060.59617526486, 154569.19724574056, -169804.95092927825, 65845.91458391126, 79328.8221155193, -0.08600000000000001, 0.986, -0.088, 192.0, 0.0, 0.0, 0.0, 0.0, 0.0, 0.0, 0.0, 0.0, 0.0, 1.6961087111862786E9, 0.0, 2023-09-30 16:18:31.186
134.0, 153213.63099975957, 154435.77968308685, -159646.17248131902, -160075.4824370721, 154559.72010609152, -169799.4747518867, 65940.12718679037, 79141.29097953928, -0.08600000000000001, 0.986, -0.088, 192.0, 0.0, 0.0, 0.0, 0.0, 0.0, 0.0, 0.0, 0.0, 0.0, 1.696108711186306E9, 0.0, 2023-09-30 16:18:31.186
135.0, 153707.2245725661, 154445.21211924698, -159643.95965861794, -160320.72577723573, 154565.73272535, -169842.2336390297, 65718.57669574938, 79100.3202319527, -0.08600000000000001, 0.986, -0.088, 192.0, 0.0, 0.0, 0.0, 0.0, 0.0, 0.0, 0.0, 0.0, 0.0, 1.69610871118633E9, 0.0, 2023-09-30 16:18:31.186
136.0, 153851.1698068583, 154443.87101457966, -159663.47273152744, -160185.27420583658, 154564.27986196041, -169834.11995579244, 65626.26399114895, 79281.05643761832, -0.08600000000000001, 0.986, -0.088, 192.0, 0.0, 0.0, 0.0, 0.0, 0.0, 0.0, 0.0, 0.0, 0.0, 1.696108711186372E9, 0.0, 2023-09-30 16:18:31.186
137.0, 153405.43131893055, 154436.49493890943, -159671.92169093154, -160109.47944038862, 154559.4295334136, -169804.30272868904, 65786.68246110469, 79287.49374002144, -0.08600000000000001, 0.986, -0.088, 192.0, 0.0, 0.0, 0.0, 0.0, 0.0, 0.0, 0.0, 0.0, 0.0, 1.6961087111863973E9, 0.0, 2023-09-30 16:18:31.186
138.0, 153075.85484693706, 154430.57172662875, -159650.59812672116, -160079.55045456297, 154555.00388801144, -169796.5690251075, 65928.39252095134, 79115.87704609359, -0.08600000000000001, 0.986, -0.088, 192.0, 0.0, 0.0, 0.0, 0.0, 0.0, 0.0, 0.0, 0.0, 0.0, 1.6961087111864195E9, 0.0, 2023-09-30 16:18:31.186
139.0, 153495.2182764075, 154438.32778195475, -159634.929553858, -160290.14859082087, 154559.47423690252, -169836.06455756005, 65745.68936177366, 79039.36702482308, -0.08600000000000001, 0.986, -0.088, 192.0, 0.0, 0.0, 0.0, 0.0, 0.0, 0.0, 0.0, 0.0, 0.0, 1.6961087111864448E9, 0.0, 2023-09-30 16:18:31.186
140.0, 153806.9580563257, 154442.73107561245, -159661.37166754864, -160214.42088060628, 154562.89405380416, -169842.4348047298, 65597.81022045735, 79216.7951723093, -0.08600000000000001, 0.986, -0.088, 192.0, 0.0, 0.0, 0.0, 0.0, 0.0, 0.0, 0.0, 0.0, 0.0, 1.6961087111864686E9, 0.0, 2023-09-30 16:18:31.186
141.0, 153421.63633366066, 154434.70679935298, -159672.6369467541, -160119.87300156034, 154557.17200722362, -169809.9800717807, 65730.40076856622, 79285.459731276, -0.084, 0.986, -0.092, 192.0, 253.0, 96.0, 30.0, 208.0, 253.0, 32.0, 0.0, 0.0, 0.0, 1.6961087111864917E9, 0.0, 2023-09-30 16:18:31.186
142.0, 153073.7761347027, 154425.2520114484, -159651.87217615513, -160069.82744572492, 154549.72887632, -169793.10450471693, 65906.66662534077, 79139.39108126058, -0.084, 0.986, -0.092, 192.0, 0.0, 0.0, 0.0, 0.0, 0.0, 0.0, 0.0, 0.0, 0.0, 1.6961087111865137E9, 0.0, 2023-09-30 16:18:31.186
143.0, 153381.1573244521, 154431.68931385153, -159629.431024722, -160224.99325573366, 154553.50632113294, -169826.81093535555, 65786.34718493785, 79038.00356841131, -0.084, 0.986, -0.092, 192.0, 0.0, 0.0, 0.0, 0.0, 0.0, 0.0, 0.0, 0.0, 0.0, 1.6961087111865385E9, 0.0, 2023-09-30 16:18:31.186
144.0, 153856.0201354051, 154442.17228200106, -159659.58352799222, -160231.65407558132, 154562.0893910038, -169848.24625828819, 65597.05026114587, 79190.06248594075, -0.084, 0.986, -0.092, 192.0, 0.0, 0.0, 0.0, 0.0, 0.0, 0.0, 0.0, 0.0, 0.0, 1.6961087111865666E9, 0.0, 2023-09-30 16:18:31.186
145.0, 153541.10640777426, 154436.33847669823, -159679.76715323536, -160125.25977197406, 154558.42370491312, -169817.35614745095, 65697.34253851682, 79302.13413263967, -0.084, 0.986, -0.092, 192.0, 0.0, 0.0, 0.0, 0.0, 0.0, 0.0, 0.0, 0.0, 0.0, 1.696108711186587E9, 0.0, 2023-09-30 16:18:31.186
146.0, 153129.85666154107, 154430.79524407332, -159662.66806872704, -160094.41436462576, 154555.1827019671, -169800.078248987, 65883.91254948528, 79171.01879966483, -0.084, 0.986, -0.092, 192.0, 0.0, 0.0, 0.0, 0.0, 0.0, 0.0, 0.0, 0.0, 0.0, 1.6961087111866093E9, 0.0, 2023-09-30 16:18:31.186
147.0, 153265.21882596242, 154433.70097085251, -159642.66325743953, -160189.27516809406, 154556.41204791213, -169824.64281614337, 65822.06527257744, 79034.36023406508, -0.084, 0.986, -0.092, 192.0, 0.0, 0.0, 0.0, 0.0, 0.0, 0.0, 0.0, 0.0, 0.0, 1.696108711186636E9, 0.0, 2023-09-30 16:18:31.186
148.0, 153813.5071174511, 154441.68054362305, -159647.62534470862, -160270.2331865112, 154561.7317630925, -169852.40368275688, 65590.92588316511, 79138.65347369356, -0.084, 0.986, -0.092, 192.0, 0.0, 0.0, 0.0, 0.0, 0.0, 0.0, 0.0, 0.0, 0.0, 1.696108711186663E9, 0.0, 2023-09-30 16:18:31.186
149.0, 153571.61653895577, 154431.53285164034, -159663.96446990545, -160109.68060608872, 154553.4392658996, -169819.01017654064, 65639.31740991086, 79282.15167309663, -0.084, 0.986, -0.092, 192.0, 0.0, 0.0, 0.0, 0.0, 0.0, 0.0, 0.0, 0.0, 0.0, 1.696108711186684E9, 0.0, 2023-09-30 16:18:31.186
150.0, 153142.55245239168, 154422.01100850236, -159654.97906863442, -160094.8390477704, 154546.39846639615, -169793.86446402842, 65830.8942116373, 79182.21702363694, -0.084, 0.986, -0.092, 192.0, 0.0, 0.0, 0.0, 0.0, 0.0, 0.0, 0.0, 0.0, 0.0, 1.6961087111867087E9, 0.0, 2023-09-30 16:18:31.186
151.0, 153130.54956561918, 154423.3968166586, -159637.2764870258, -160138.31319073596, 154546.9349082631, -169809.4883334027, 65837.13034834032, 79032.01330089728, -0.084, 0.986, -0.092, 192.0, 0.0, 0.0, 0.0, 0.0, 0.0, 0.0, 0.0, 0.0, 0.0, 1.6961087111867292E9, 0.0, 2023-09-30 16:18:31.186
152.0, 153718.4898517716, 154434.72915109745, -159644.74196967387, -160283.7783436511, 154555.11564673373, -169846.5922291985, 65595.8879704342, 79093.167673727, -0.08, 0.99, -0.08600000000000001, 192.0, 253.0, 128.0, 30.0, 240.0, 253.0, 80.0, 0.0, 0.0, 0.0, 1.6961087111867645E9, 0.0, 2023-09-30 16:18:31.186
153.0, 153612.29671386443, 154432.18105222954, -159668.92655717453, -160126.42206268574, 154553.90865253314, -169823.30171147606, 65609.09785140728, 79275.46850150448, -0.08, 0.99, -0.08600000000000001, 192.0, 0.0, 0.0, 0.0, 0.0, 0.0, 0.0, 0.0, 0.0, 0.0, 1.696108711186794E9, 0.0, 2023-09-30 16:18:31.186
154.0, 153187.72532793586, 154425.18495621503, -159668.27835658533, -160121.72819635013, 154549.5277106199, -169796.85959778543, 65805.6814438917, 79219.41032641058, -0.08, 0.99, -0.08600000000000001, 192.0, 0.0, 0.0, 0.0, 0.0, 0.0, 0.0, 0.0, 0.0, 0.0, 1.6961087111868255E9, 0.0, 2023-09-30 16:18:31.186
155.0, 153055.4253525049, 154423.28505793633, -159637.70117017045, -160104.62911184182, 154547.76192280793, -169802.04520249908, 65876.80469474848, 79063.35044662362, -0.08, 0.99, -0.08600000000000001, 192.0, 0.0, 0.0, 0.0, 0.0, 0.0, 0.0, 0.0, 0.0, 0.0, 1.6961087111868603E9, 0.0, 2023-09-30 16:18:31.186
156.0, 153658.20719697562, 154431.95753478497, -159630.34744624468, -160288.1816373088, 154552.76871356592, -169840.80312738457, 65641.99961924549, 79080.33777240965, -0.08, 0.99, -0.08600000000000001, 192.0, 0.0, 0.0, 0.0, 0.0, 0.0, 0.0, 0.0, 0.0, 0.0, 1.6961087111868925E9, 0.0, 2023-09-30 16:18:31.186
157.0, 153704.1847353202, 154429.85647080617, -159660.90228091506, -160131.83118484393, 154551.20409145404, -169824.2851882321, 65595.44093554508, 79278.15071083912, -0.08, 0.99, -0.08600000000000001, 192.0, 0.0, 0.0, 0.0, 0.0, 0.0, 0.0, 0.0, 0.0, 0.0, 1.696108711186965E9, 0.0, 2023-09-30 16:18:31.186
158.0, 153282.0273377928, 154423.97796201444, -159665.73025771743, -160112.9886642681, 154547.89603327468, -169796.16669370732, 65772.53380686448, 79264.9631816105, -0.08, 0.99, -0.08600000000000001, 192.0, 0.0, 0.0, 0.0, 0.0, 0.0, 0.0, 0.0, 0.0, 0.0, 1.6961087111870103E9, 0.0, 2023-09-30 16:18:31.187
159.0, 153061.79559967466, 154419.52996486783, -159639.8916411271, -160065.7817799785, 154544.36445765072, -169792.4339523833, 65889.299319899, 79104.12002851011, -0.08, 0.99, -0.08600000000000001, 192.0, 0.0, 0.0, 0.0, 0.0, 0.0, 0.0, 0.0, 0.0, 0.0, 1.6961087111870413E9, 0.0, 2023-09-30 16:18:31.187
160.0, 153596.24816134552, 154432.51632839636, -159636.4271207365, -160268.35563997694, 154553.7745420664, -169836.7351098937, 65678.47766619654, 79071.55353683872, -0.08, 0.99, -0.08600000000000001, 192.0, 0.0, 0.0, 0.0, 0.0, 0.0, 0.0, 0.0, 0.0, 0.0, 1.6961087111870787E9, 0.0, 2023-09-30 16:18:31.187
161.0, 153834.1601293278, 154435.73497959794, -159659.20354833646, -160157.22276654516, 154556.65791710114, -169833.65056915887, 65575.21260681303, 79267.42187350057, -0.08, 0.99, -0.08600000000000001, 192.0, 0.0, 0.0, 0.0, 0.0, 0.0, 0.0, 0.0, 0.0, 0.0, 1.6961087111871088E9, 0.0, 2023-09-30 16:18:31.187
162.0, 153457.89086316715, 154427.5989446162, -159668.4348187965, -160118.1966207262, 154550.8911670317, -169801.2405396987, 65727.9644284206, 79300.83773146126, -0.078, 0.99, -0.09, 192.0, 253.0, 144.0, 30.0, 240.0, 253.0, 48.0, 0.0, 0.0, 0.0, 1.6961087111871364E9, 0.0, 2023-09-30 16:18:31.187
163.0, 153166.3123567477, 154420.4463863905, -159646.5301092303, -160091.9333209912, 154545.10206521774, -169789.4164668818, 65882.23616865113, 79151.97511338892, -0.078, 0.99, -0.09, 192.0, 0.0, 0.0, 0.0, 0.0, 0.0, 0.0, 0.0, 0.0, 0.0, 1.696108711187162E9, 0.0, 2023-09-30 16:18:31.187
164.0, 153598.08100439084, 154427.95657252747, -159626.25707700933, -160267.77449462112, 154549.55006236435, -169827.28032198912, 65714.44162302514, 79082.75176081083, -0.078, 0.99, -0.09, 192.0, 0.0, 0.0, 0.0, 0.0, 0.0, 0.0, 0.0, 0.0, 0.0, 1.696108711187191E9, 0.0, 2023-09-30 16:18:31.187
165.0, 153990.97996842623, 154431.62225861815, -159650.75458893235, -160209.50349682613, 154552.09816123225, -169834.74580463718, 65554.96192633652, 79263.93500136555, -0.078, 0.99, -0.09, 192.0, 0.0, 0.0, 0.0, 0.0, 0.0, 0.0, 0.0, 0.0, 0.0, 1.6961087111872258E9, 0.0, 2023-09-30 16:18:31.187
166.0, 153653.33451668438, 154429.29767719482, -159673.5310165323, -160120.2529812161, 154552.0311059989, -169807.52137989062, 65679.32703248585, 79349.83275530729, -0.078, 0.99, -0.09, 192.0, 0.0, 0.0, 0.0, 0.0, 0.0, 0.0, 0.0, 0.0, 0.0, 1.6961087111872597E9, 0.0, 2023-09-30 16:18:31.187
167.0, 153293.0243960648, 154423.46387189196, -159652.78859767778, -160082.94791972017, 154548.0748472303, -169792.8809872724, 65859.66090675126, 79217.53277987633, -0.078, 0.99, -0.09, 192.0, 0.0, 0.0, 0.0, 0.0, 0.0, 0.0, 0.0, 0.0, 0.0, 1.6961087111872876E9, 0.0, 2023-09-30 16:18:31.187
168.0, 153532.32217220333, 154427.37542717165, -159626.9723328319, -160220.6123138204, 154549.66182108663, -169822.85467658695, 65753.89245198875, 79116.59230191617, -0.078, 0.99, -0.09, 192.0, 0.0, 0.0, 0.0, 0.0, 0.0, 0.0, 0.0, 0.0, 0.0, 1.6961087111873128E9, 0.0, 2023-09-30 16:18:31.187
169.0, 154023.07707346405, 154434.34917144172, -159649.8828708986, -160241.31002918602, 154554.7803705669, -169842.77008089665, 65558.64996417165, 79271.1099113357, -0.078, 0.99, -0.09, 192.0, 0.0, 0.0, 0.0, 0.0, 0.0, 0.0, 0.0, 0.0, 0.0, 1.6961087111873407E9, 0.0, 2023-09-30 16:18:31.187
170.0, 153746.07190442944, 154428.67182835005, -159672.2346153539, -160119.33655969342, 154551.0923327318, -169811.54469389256, 65658.4952066535, 79404.66158445616, -0.078, 0.99, -0.09, 192.0, 0.0, 0.0, 0.0, 0.0, 0.0, 0.0, 0.0, 0.0, 0.0, 1.6961087111999547E9, 0.0, 2023-09-30 16:18:31.199
171.0, 153327.15550984806, 154418.79235730082, -159653.72737094492, -160093.31912914745, 154543.4256843836, -169787.89654825887, 65862.52193004155, 79290.33241156726, -0.078, 0.99, -0.09, 192.0, 0.0, 0.0, 0.0, 0.0, 0.0, 0.0, 0.0, 0.0, 0.0, 1.6961087112000756E9, 0.0, 2023-09-30 16:18:31.200
172.0, 153394.52366763636, 154422.03336024683, -159628.9839898329, -160171.39377252982, 154545.2361756845, -169810.3824031809, 65829.41899650324, 79156.22194483543, -0.078, 0.988, -0.08600000000000001, 192.0, 253.0, 144.0, 30.0, 224.0, 253.0, 80.0, 0.0, 0.0, 0.0, 1.6961087113028395E9, 0.0, 2023-09-30 16:18:31.302
173.0, 153940.97911607972, 154429.92352603955, -159638.21526029293, -160265.0252300531, 154550.39942865365, -169838.97028433924, 65606.21447637254, 79251.86505935968, -0.078, 0.988, -0.08600000000000001, 192.0, 0.0, 0.0, 0.0, 0.0, 0.0, 0.0, 0.0, 0.0, 0.0, 1.696108711302869E9, 0.0, 2023-09-30 16:18:31.302
174.0, 153731.27504960002, 154425.18495621503, -159660.81287393725, -160102.05866122947, 154547.29253617438, -169810.47181015872, 65661.78091308844, 79405.6897647011, -0.078, 0.988, -0.08600000000000001, 192.0, 0.0, 0.0, 0.0, 0.0, 0.0, 0.0, 0.0, 0.0, 0.0, 1.6961087113028834E9, 0.0, 2023-09-30 16:18:31.302
175.0, 153289.64928265207, 154418.39002590062, -159660.03056288132, -160112.42987065672, 154543.04570472788, -169786.39898138036, 65867.84164522191, 79310.67249902159, -0.078, 0.988, -0.08600000000000001, 192.0, 0.0, 0.0, 0.0, 0.0, 0.0, 0.0, 0.0, 0.0, 0.0, 1.6961087113028963E9, 0.0, 2023-09-30 16:18:31.302
176.0, 153236.83211050418, 154419.3511509122, -159626.681760154, -160136.52505117955, 154543.40333263914, -169799.29593793108, 65902.5092008721, 79153.76325294534, -0.078, 0.988, -0.08600000000000001, 192.0, 0.0, 0.0, 0.0, 0.0, 0.0, 0.0, 0.0, 0.0, 0.0, 1.6961087113029084E9, 0.0, 2023-09-30 16:18:31.302
177.0, 153842.74319919865, 154428.67182835005, -159630.05687356673, -160284.76182040715, 154549.41595189762, -169835.12578429293, 65674.43200045014, 79201.97596573543, -0.078, 0.988, -0.08600000000000001, 192.0, 0.0, 0.0, 0.0, 0.0, 0.0, 0.0, 0.0, 0.0, 0.0, 1.696108711302921E9, 0.0, 2023-09-30 16:18:31.302
178.0, 153783.17580022523, 154429.11886323916, -159665.01500189485, -160125.12566150734, 154550.9358705206, -169815.72447010572, 65690.4582012246, 79384.27679351292, -0.078, 0.988, -0.08600000000000001, 192.0, 0.0, 0.0, 0.0, 0.0, 0.0, 0.0, 0.0, 0.0, 0.0, 1.6961087113029337E9, 0.0, 2023-09-30 16:18:31.302
179.0, 153354.8493212282, 154419.48526137893, -159662.7351239604, -160116.9896265256, 154543.85036752824, -169785.46020811322, 65900.2069711932, 79334.00772023294, -0.078, 0.988, -0.08600000000000001, 192.0, 0.0, 0.0, 0.0, 0.0, 0.0, 0.0, 0.0, 0.0, 0.0, 1.69610871130295E9, 0.0, 2023-09-30 16:18:31.302
180.0, 153198.83414493015, 154417.22773518894, -159636.36006550313, -160094.36966113685, 154541.9281175051, -169788.14241744787, 66004.50021082166, 79184.27338412683, -0.078, 0.988, -0.08600000000000001, 192.0, 0.0, 0.0, 0.0, 0.0, 0.0, 0.0, 0.0, 0.0, 0.0, 1.6961087113029623E9, 0.0, 2023-09-30 16:18:31.302
181.0, 153786.46150666018, 154429.02945626134, -159629.9227631, -160268.19917776575, 154550.26531818692, -169830.20840051275, 65795.62315888681, 79205.26167217037, -0.078, 0.988, -0.08600000000000001, 192.0, 0.0, 0.0, 0.0, 0.0, 0.0, 0.0, 0.0, 0.0, 0.0, 1.6961087113029747E9, 0.0, 2023-09-30 16:18:31.302
182.0, 153897.03558648058, 154427.50953763837, -159661.30461231526, -160125.05860627396, 154548.96891700852, -169815.00921428314, 65762.40846662622, 79422.81120095387, -0.078, 0.982, -0.08, 192.0, 253.0, 144.0, 30.0, 176.0, 253.0, 128.0, 0.0, 0.0, 0.0, 1.6961087113029869E9, 0.0, 2023-09-30 16:18:31.302
183.0, 153503.80134627837, 154422.1004154802, -159673.8886444436, -160107.87011478783, 154545.9737832515, -169785.4825598577, 65963.19418706825, 79439.39619533971, -0.078, 0.982, -0.08, 192.0, 0.0, 0.0, 0.0, 0.0, 0.0, 0.0, 0.0, 0.0, 0.0, 1.696108711302999E9, 0.0, 2023-09-30 16:18:31.302
184.0, 153266.71639284093, 154420.2452206904, -159650.35225753215, -160100.24816992859, 154545.19147219558, -169781.74981853366, 66119.43288081084, 79298.04376340435, -0.078, 0.982, -0.08, 192.0, 0.0, 0.0, 0.0, 0.0, 0.0, 0.0, 0.0, 0.0, 0.0, 1.6961087113030117E9, 0.0, 2023-09-30 16:18:31.303
185.0, 153771.32937566392, 154430.72818883994, -159632.15793754553, -160246.6297443664, 154552.45578914354, -169822.72056612023, 65941.2671257576, 79268.47240548997, -0.078, 0.982, -0.08, 192.0, 0.0, 0.0, 0.0, 0.0, 0.0, 0.0, 0.0, 0.0, 0.0, 1.6961087113030236E9, 0.0, 2023-09-30 16:18:31.303
186.0, 154047.19460573132, 154432.24810746292, -159658.53299600282, -160146.78450188454, 154553.3275071773, -169819.21134224074, 65838.87378440783, 79467.69350382013, -0.078, 0.982, -0.08, 192.0, 0.0, 0.0, 0.0, 0.0, 0.0, 0.0, 0.0, 0.0, 0.0, 1.696108711303036E9, 0.0, 2023-09-30 16:18:31.303
187.0, 153651.99341201704, 154425.6543428486, -159668.72539147444, -160101.27635017352, 154548.85715828624, -169787.33775464748, 65994.1737048833, 79512.73226889757, -0.078, 0.982, -0.08, 192.0, 0.0, 0.0, 0.0, 0.0, 0.0, 0.0, 0.0, 0.0, 0.0, 1.6961087113030488E9, 0.0, 2023-09-30 16:18:31.303
188.0, 153307.46362298293, 154421.58632535773, -159651.06751335473, -160105.32201591993, 154546.2867076739, -169777.27946964258, 66161.94589876484, 79362.03680777989, -0.078, 0.982, -0.08, 192.0, 0.0, 0.0, 0.0, 0.0, 0.0, 0.0, 0.0, 0.0, 0.0, 1.696108711303061E9, 0.0, 2023-09-30 16:18:31.303
189.0, 153664.51038891202, 154428.71653183896, -159629.74394914438, -160245.95919203272, 154550.7347048205, -169814.1374962494, 66011.09397543597, 79276.78725442736, -0.078, 0.982, -0.08, 192.0, 0.0, 0.0, 0.0, 0.0, 0.0, 0.0, 0.0, 0.0, 0.0, 1.696108711303074E9, 0.0, 2023-09-30 16:18:31.303
190.0, 154062.88553033894, 154434.25976446387, -159651.93923138847, -160200.40633683282, 154554.981536267, -169825.96156906625, 65846.47337752263, 79445.83349774283, -0.078, 0.982, -0.08, 192.0, 0.0, 0.0, 0.0, 0.0, 0.0, 0.0, 0.0, 0.0, 0.0, 1.6961087113030863E9, 0.0, 2023-09-30 16:18:31.303
191.0, 153726.71529373113, 154428.38125567214, -159667.6301559961, -160109.92647527772, 154551.0923327318, -169795.33967916248, 65968.84917841545, 79534.01112961903, -0.078, 0.982, -0.08, 192.0, 0.0, 0.0, 0.0, 0.0, 0.0, 0.0, 0.0, 0.0, 0.0, 1.6961087113030987E9, 0.0, 2023-09-30 16:18:31.303
192.0, 153330.41886453854, 154420.6028486017, -159649.70405694295, -160091.7321552911, 154545.19147219558, -169778.1735394208, 66153.87691901647, 79392.41282849465, -0.078, 0.982, -0.08, 192.0, 0.0, 0.0, 0.0, 0.0, 0.0, 0.0, 0.0, 0.0, 0.0, 1.6961087113031106E9, 0.0, 2023-09-30 16:18:31.303
193.0, 153543.81096885336, 154424.13442422563, -159626.19002177598, -160208.02828169207, 154546.59963209624, -169807.09669674595, 66058.27850798113, 79274.73089393746, -0.08, 0.986, -0.08, 192.0, 253.0, 128.0, 30.0, 208.0, 253.0, 128.0, 0.0, 0.0, 0.0, 1.6961087113369627E9, 0.0, 2023-09-30 16:18:31.336
194.0, 154055.6659168799, 154430.41526441756, -159638.57288820422, -160239.6783518408, 154550.7347048205, -169829.33668247898, 65843.63470597682, 79413.95991014957, -0.08, 0.986, -0.08, 192.0, 0.0, 0.0, 0.0, 0.0, 0.0, 0.0, 0.0, 0.0, 0.0, 1.6961087113370311E9, 0.0, 2023-09-30 16:18:31.337
195.0, 153782.41584091377, 154425.81080505977, -159659.49412101437, -160103.26565543006, 154547.9854402525, -169801.0393739986, 65913.84153531093, 79549.09855712636, -0.08, 0.986, -0.08, 192.0, 0.0, 0.0, 0.0, 0.0, 0.0, 0.0, 0.0, 0.0, 0.0, 1.6961087113370588E9, 0.0, 2023-09-30 16:18:31.337
196.0, 153350.6918967595, 154416.82540378874, -159645.09959758515, -160076.19769289467, 154541.3246204048, -169779.5146440881, 66092.34256653102, 79432.26598885846, -0.08, 0.986, -0.08, 192.0, 0.0, 0.0, 0.0, 0.0, 0.0, 0.0, 0.0, 0.0, 0.0, 1.6961087113370812E9, 0.0, 2023-09-30 16:18:31.337
197.0, 153399.19518222753, 154418.7476538119, -159626.435890965, -160153.3559147544, 154541.86106227172, -169800.81585655402, 66042.31936244004, 79285.63854523165, -0.08, 0.986, -0.08, 192.0, 0.0, 0.0, 0.0, 0.0, 0.0, 0.0, 0.0, 0.0, 0.0, 1.6961087113371036E9, 0.0, 2023-09-30 16:18:31.337
198.0, 153952.35615400746, 154427.68835159403, -159630.7274259004, -160272.31189874554, 154547.9854402525, -169833.65056915887, 65782.25681570254, 79365.25545898145, -0.08, 0.986, -0.08, 192.0, 0.0, 0.0, 0.0, 0.0, 0.0, 0.0, 0.0, 0.0, 0.0, 1.6961087113371243E9, 0.0, 2023-09-30 16:18:31.337
199.0, 153747.25654688556, 154422.4580433915, -159645.74779817436, -160096.6271873268, 154544.3197541618, -169807.56608337953, 65788.76117333904, 79512.06171656391, -0.08, 0.986, -0.08, 192.0, 0.0, 0.0, 0.0, 0.0, 0.0, 0.0, 0.0, 0.0, 0.0, 1.696108711451238E9, 0.0, 2023-09-30 16:18:31.451
200.0, 153262.84954105015, 154411.77390954184, -159631.934420101, -160050.69435247115, 154536.1837191801, -169781.79452202257, 65945.37984673737, 79406.53913099041, -0.08, 0.986, -0.08, 192.0, 0.0, 0.0, 0.0, 0.0, 0.0, 0.0, 0.0, 0.0, 0.0, 1.6961087114512649E9, 0.0, 2023-09-30 16:18:31.451
201.0, 153149.72736236185, 154407.88470600662, -159618.21044900542, -160110.32880667792, 154531.7804255224, -169791.13755120488, 65941.64710541333, 79232.82137308376, -0.08, 0.986, -0.08, 192.0, 0.0, 0.0, 0.0, 0.0, 0.0, 0.0, 0.0, 0.0, 0.0, 1.6961087114512813E9, 0.0, 2023-09-30 16:18:31.451
202.0, 153720.94854366168, 154416.37836889963, -159619.6186089061, -160293.45664900026, 154536.78721628038, -169829.35903422345, 65663.23377647802, 79265.63373394415, -0.08, 0.986, -0.08, 192.0, 0.0, 0.0, 0.0, 0.0, 0.0, 0.0, 0.0, 0.0, 0.0, 1.696108711451296E9, 0.0, 2023-09-30 16:18:31.451
203.0, 153655.9720225301, 154414.81374678775, -159638.70699867094, -160108.40655665478, 154536.228422669, -169811.05295551455, 65613.45644157605, 79454.61773331377, -0.088, 0.982, -0.082, 192.0, 253.0, 64.0, 30.0, 176.0, 253.0, 112.0, 0.0, 0.0, 0.0, 1.69610871145131E9, 0.0, 2023-09-30 16:18:31.451
204.0, 153197.47068851837, 154404.30842689378, -159633.16376604603, -160072.44259982617, 154528.40531210965, -169780.98985922217, 65765.56006259442, 79414.02696538293, -0.088, 0.982, -0.082, 192.0, 0.0, 0.0, 0.0, 0.0, 0.0, 0.0, 0.0, 0.0, 0.0, 1.696108711451331E9, 0.0, 2023-09-30 16:18:31.451
205.0, 152993.01928198567, 154398.87695299112, -159615.34942571516, -160072.19673063717, 154523.3761696072, -169780.29695514406, 65826.0885865794, 79250.2557337589, -0.088, 0.982, -0.082, 192.0, 0.0, 0.0, 0.0, 0.0, 0.0, 0.0, 0.0, 0.0, 0.0, 1.6961087114513583E9, 0.0, 2023-09-30 16:18:31.451
206.0, 153545.48734968752, 154409.22581067393, -159611.95196055796, -160269.40617196634, 154530.0146377104, -169821.71473761974, 65576.71017369154, 79242.76789936637, -0.088, 0.982, -0.082, 192.0, 0.0, 0.0, 0.0, 0.0, 0.0, 0.0, 0.0, 0.0, 0.0, 1.6961087114513726E9, 0.0, 2023-09-30 16:18:31.451
207.0, 153646.83015904788, 154411.192764186, -159638.4387777375, -160127.98668479762, 154532.2274604115, -169812.77403983762, 65488.621948793174, 79439.48560231752, -0.088, 0.982, -0.082, 192.0, 0.0, 0.0, 0.0, 0.0, 0.0, 0.0, 0.0, 0.0, 0.0, 1.6961087114513872E9, 0.0, 2023-09-30 16:18:31.451
208.0, 153210.94879042494, 154403.48141234892, -159641.6797806835, -160092.5368180915, 154527.28772488688, -169782.30861214502, 65642.44665413459, 79440.49143081802, -0.088, 0.982, -0.082, 192.0, 0.0, 0.0, 0.0, 0.0, 0.0, 0.0, 0.0, 0.0, 0.0, 1.6961087114514012E9, 0.0, 2023-09-30 16:18:31.451
209.0, 152921.78427240663, 154398.8993047356, -159626.0335595648, -160056.90813742974, 154524.00201845195, -169776.318344631, 65769.53867310747, 79280.02825737337, -0.088, 0.982, -0.082, 192.0, 0.0, 0.0, 0.0, 0.0, 0.0, 0.0, 0.0, 0.0, 0.0, 1.6961087114514225E9, 0.0, 2023-09-30 16:18:31.451
210.0, 153390.83562980124, 154407.92940949553, -159617.8304693497, -160239.70070358523, 154529.2770301434, -169815.65741487234, 65574.72086843502, 79236.46470742997, -0.088, 0.982, -0.082, 192.0, 0.0, 0.0, 0.0, 0.0, 0.0, 0.0, 0.0, 0.0, 0.0, 1.6961087114514396E9, 0.0, 2023-09-30 16:18:31.451
211.0, 153651.65813585022, 154412.8467932757, -159633.2308212794, -160149.35495249688, 154533.45680635652, -169817.46790617323, 65453.41795127606, 79440.33496860682, -0.088, 0.982, -0.082, 192.0, 0.0, 0.0, 0.0, 0.0, 0.0, 0.0, 0.0, 0.0, 0.0, 1.6961087114514544E9, 0.0, 2023-09-30 16:18:31.451
212.0, 153260.3237939267, 154405.91775249454, -159651.40278952155, -160086.74771627758, 154529.05351269885, -169784.49908310166, 65610.2377903745, 79504.77504787149, -0.088, 0.982, -0.082, 192.0, 0.0, 0.0, 0.0, 0.0, 0.0, 0.0, 0.0, 0.0, 0.0, 1.6961087114514687E9, 0.0, 2023-09-30 16:18:31.451
213.0, 152933.63069696794, 154398.83224950221, -159632.672027668, -160074.56601554944, 154523.93496321858, -169769.63517303887, 65794.6843856197, 79362.1262147577, -0.096, 0.982, -0.084, 192.0, 253.0, 0.0, 30.0, 176.0, 253.0, 96.0, 0.0, 0.0, 0.0, 1.6961087114514837E9, 0.0, 2023-09-30 16:18:31.451
214.0, 153290.8786285971, 154406.83417401722, -159604.35236744315, -160197.88058970936, 154528.8299952543, -169804.14626647788, 65673.13559927173, 79280.34118179574, -0.096, 0.982, -0.084, 192.0, 0.0, 0.0, 0.0, 0.0, 0.0, 0.0, 0.0, 0.0, 0.0, 1.6961087114514983E9, 0.0, 2023-09-30 16:18:31.451
215.0, 153720.032122139, 154415.86427877715, -159634.191946291, -160167.57162422797, 154536.1166639467, -169818.96547305174, 65520.04850149733, 79456.96466648158, -0.096, 0.982, -0.084, 192.0, 0.0, 0.0, 0.0, 0.0, 0.0, 0.0, 0.0, 0.0, 0.0, 1.6961087114515128E9, 0.0, 2023-09-30 16:18:31.451
216.0, 153369.26619640188, 154411.23746767492, -159655.20258607896, -160065.73707648957, 154533.99324822347, -169787.29305115857, 65658.58461363132, 79567.06935966843, -0.096, 0.982, -0.084, 192.0, 0.0, 0.0, 0.0, 0.0, 0.0, 0.0, 0.0, 0.0, 0.0, 1.6961087114515276E9, 0.0, 2023-09-30 16:18:31.451
217.0, 152981.19520916883, 154405.5377728388, -159648.02767610882, -160082.2326638976, 154530.75224527746, -169769.29989687205, 65872.66962202426, 79440.24556162901, -0.096, 0.982, -0.084, 192.0, 0.0, 0.0, 0.0, 0.0, 0.0, 0.0, 0.0, 0.0, 0.0, 1.6961087114515421E9, 0.0, 2023-09-30 16:18:31.451
218.0, 153184.79724941222, 154409.62814207413, -159613.29306522527, -160167.16929282778, 154532.49568134497, -169794.6691268288, 65819.9865603431, 79325.29053989536, -0.096, 0.982, -0.084, 192.0, 0.0, 0.0, 0.0, 0.0, 0.0, 0.0, 0.0, 0.0, 0.0, 1.6961087114515605E9, 0.0, 2023-09-30 16:18:31.451
219.0, 153735.43247406872, 154417.0936247222, -159629.00634157733, -160202.6638630228, 154537.25660291393, -169816.95381605075, 65634.06474996386, 79461.32325665036, -0.096, 0.982, -0.084, 192.0, 0.0, 0.0, 0.0, 0.0, 0.0, 0.0, 0.0, 0.0, 0.0, 1.6961087114515767E9, 0.0, 2023-09-30 16:18:31.451
220.0, 153498.5263345869, 154412.3550548977, -159655.06847561224, -160069.46981781363, 154534.50733834592, -169786.08605695798, 65741.8672134718, 79616.08673525891, -0.096, 0.982, -0.084, 192.0, 0.0, 0.0, 0.0, 0.0, 0.0, 0.0, 0.0, 0.0, 0.0, 1.6961087114515924E9, 0.0, 2023-09-30 16:18:31.451
221.0, 153096.41845183593, 154406.36478738367, -159651.46984475493, -160080.533931319, 154531.221631911, -169764.20369913624, 65974.95120465175, 79521.49415272404, -0.096, 0.982, -0.084, 192.0, 0.0, 0.0, 0.0, 0.0, 0.0, 0.0, 0.0, 0.0, 0.0, 1.696108711451609E9, 0.0, 2023-09-30 16:18:31.451
222.0, 153162.57961542363, 154408.28703740682, -159623.44075720798, -160130.46772843215, 154531.8251290113, -169781.03456271108, 66006.44481258927, 79394.67035468464, -0.096, 0.982, -0.084, 192.0, 0.0, 0.0, 0.0, 0.0, 0.0, 0.0, 0.0, 0.0, 0.0, 1.6961087114516244E9, 0.0, 2023-09-30 16:18:31.451
223.0, 153776.11264897737, 154418.6582468341, -159627.4864229544, -160224.05448246654, 154539.0670942148, -169814.51747590513, 65810.66588290523, 79490.20171048662, -0.088, 0.98, -0.088, 192.0, 253.0, 64.0, 30.0, 160.0, 253.0, 64.0, 0.0, 0.0, 0.0, 1.69610871145164E9, 0.0, 2023-09-30 16:18:31.451
224.0, 153639.6105455888, 154417.6524183336, -159658.73416170292, -160083.14908542027, 154539.4247221261, -169790.84697852697, 65877.51995057106, 79679.18570985625, -0.088, 0.98, -0.088, 192.0, 0.0, 0.0, 0.0, 0.0, 0.0, 0.0, 0.0, 0.0, 0.0, 1.6961087114516556E9, 0.0, 2023-09-30 16:18:31.451
225.0, 153224.58335454267, 154410.16458394108, -159655.53786224578, -160092.60387332487, 154534.50733834592, -169764.42721658078, 66109.3522440615, 79620.78060159452, -0.088, 0.98, -0.088, 192.0, 0.0, 0.0, 0.0, 0.0, 0.0, 0.0, 0.0, 0.0, 0.0, 1.6961087114516718E9, 0.0, 2023-09-30 16:18:31.451
226.0, 153144.27353671475, 154411.5056886084, -159630.54861194475, -160119.11304224885, 154535.6696290576, -169774.06081844104, 66198.26748350472, 79478.13176848076, -0.088, 0.98, -0.088, 192.0, 0.0, 0.0, 0.0, 0.0, 0.0, 0.0, 0.0, 0.0, 0.0, 1.6961087114516883E9, 0.0, 2023-09-30 16:18:31.451
227.0, 153757.44894235718, 154423.53092712534, -159627.0840915542, -160252.06121826902, 154544.0738849728, -169814.40571718285, 65994.28546360559, 79516.97910034408, -0.088, 0.98, -0.088, 192.0, 0.0, 0.0, 0.0, 0.0, 0.0, 0.0, 0.0, 0.0, 0.0, 1.6961087115486405E9, 0.0, 2023-09-30 16:18:31.548
228.0, 153760.86875925885, 154423.53092712534, -159657.46011226895, -160106.52901012052, 154544.7891407954, -169797.35133616344, 65998.84521947446, 79715.6637568073, -0.088, 0.98, -0.088, 192.0, 0.0, 0.0, 0.0, 0.0, 0.0, 0.0, 0.0, 0.0, 0.0, 1.696108711548744E9, 0.0, 2023-09-30 16:18:31.548
229.0, 153329.68125697153, 154414.92550551004, -159659.04708612527, -160106.9313415207, 154538.91063200362, -169767.2211846377, 66210.65034993296, 79686.02534365957, -0.088, 0.98, -0.088, 192.0, 0.0, 0.0, 0.0, 0.0, 0.0, 0.0, 0.0, 0.0, 0.0, 1.696108711548767E9, 0.0, 2023-09-30 16:18:31.548
230.0, 153112.98109447732, 154410.7904327858, -159631.21916427842, -160112.7427950791, 154535.5802220798, -169765.47774857018, 66345.163148065, 79523.95284461413, -0.088, 0.98, -0.088, 192.0, 0.0, 0.0, 0.0, 0.0, 0.0, 0.0, 0.0, 0.0, 0.0, 1.6961087115487869E9, 0.0, 2023-09-30 16:18:31.548
231.0, 153646.8078073034, 154421.22869744644, -159619.66331239502, -160280.06795407154, 154542.24104192748, -169807.00728976814, 66150.85943351501, 79498.24833849054, -0.088, 0.98, -0.088, 192.0, 0.0, 0.0, 0.0, 0.0, 0.0, 0.0, 0.0, 0.0, 0.0, 1.69610871154881E9, 0.0, 2023-09-30 16:18:31.548
232.0, 153790.5965793844, 154420.89342127962, -159643.15499581755, -160136.77092036855, 154541.9281175051, -169797.70896407473, 66089.59330196302, 79684.41601805878, -0.088, 0.98, -0.088, 192.0, 0.0, 0.0, 0.0, 0.0, 0.0, 0.0, 0.0, 0.0, 0.0, 1.6961087115488355E9, 0.0, 2023-09-30 16:18:31.548
233.0, 153362.940652721, 154414.52317410984, -159655.09082735667, -160102.7292135631, 154538.03891396988, -169767.71292301573, 66270.26245239525, 79687.05352390451, -0.088, 0.98, -0.088, 192.0, 0.0, 0.0, 0.0, 0.0, 0.0, 0.0, 0.0, 0.0, 0.0, 1.6961087115488605E9, 0.0, 2023-09-30 16:18:31.548
234.0, 153052.49727398125, 154408.97994148493, -159629.49807995537, -160076.06358242795, 154533.90384124566, -169759.08514965596, 66429.20570721694, 79515.41447823221, -0.08, 0.978, -0.08600000000000001, 192.0, 253.0, 128.0, 30.0, 144.0, 253.0, 80.0, 0.0, 0.0, 0.0, 1.6961087115488808E9, 0.0, 2023-09-30 16:18:31.548
235.0, 153496.9840642195, 154415.1490229546, -159613.6283413921, -160257.2244712382, 154536.58605058028, -169795.31732741802, 66258.03604817821, 79439.7985267399, -0.08, 0.978, -0.08600000000000001, 192.0, 0.0, 0.0, 0.0, 0.0, 0.0, 0.0, 0.0, 0.0, 0.0, 1.696108711548911E9, 0.0, 2023-09-30 16:18:31.548
236.0, 153796.8997713208, 154418.23356368943, -159637.25413528134, -160173.4054295308, 154538.79887328137, -169797.9324815193, 66125.22198262477, 79609.60472936687, -0.08, 0.978, -0.08600000000000001, 192.0, 0.0, 0.0, 0.0, 0.0, 0.0, 0.0, 0.0, 0.0, 0.0, 1.6961087115489318E9, 0.0, 2023-09-30 16:18:31.548
237.0, 153399.1057752497, 154411.3045229083, -159650.66518195454, -160100.5387426065, 154534.216765668, -169765.00836193663, 66267.13320817152, 79660.58905846943, -0.08, 0.978, -0.08600000000000001, 192.0, 0.0, 0.0, 0.0, 0.0, 0.0, 0.0, 0.0, 0.0, 0.0, 1.6961087115489511E9, 0.0, 2023-09-30 16:18:31.548
238.0, 153044.69651516635, 154405.8059937723, -159633.2755247683, -160071.86145447035, 154530.68519004408, -169750.50207978513, 66446.84123359219, 79505.95969032761, -0.08, 0.978, -0.08600000000000001, 192.0, 0.0, 0.0, 0.0, 0.0, 0.0, 0.0, 0.0, 0.0, 0.0, 1.6961087115489652E9, 0.0, 2023-09-30 16:18:31.548
239.0, 153352.05535317128, 154412.26564791985, -159611.3261117132, -160208.98940670365, 154534.30617264583, -169782.64388831187, 66321.06796754217, 79399.7889041649, -0.08, 0.978, -0.08600000000000001, 192.0, 0.0, 0.0, 0.0, 0.0, 0.0, 0.0, 0.0, 0.0, 0.0, 1.6961087115489776E9, 0.0, 2023-09-30 16:18:31.548
240.0, 153797.97265505465, 154417.2500869334, -159630.54861194475, -160197.67942400926, 154537.34600989177, -169796.16669370732, 66130.47464257177, 79550.26084783803, -0.08, 0.978, -0.08600000000000001, 192.0, 0.0, 0.0, 0.0, 0.0, 0.0, 0.0, 0.0, 0.0, 0.0, 1.6961087115489917E9, 0.0, 2023-09-30 16:18:31.548
241.0, 153457.71204921152, 154414.2996566653, -159655.73902794588, -160084.75841102106, 154536.6307540692, -169766.93061195977, 66230.29753330917, 79653.43650024373, -0.08, 0.978, -0.08600000000000001, 192.0, 0.0, 0.0, 0.0, 0.0, 0.0, 0.0, 0.0, 0.0, 0.0, 1.696108711549008E9, 0.0, 2023-09-30 16:18:31.549
242.0, 153047.4234279899, 154407.25885716188, -159641.8809463836, -160086.032460455, 154531.89218424467, -169747.32813207246, 66415.5264396103, 79516.62147243279, -0.08, 0.978, -0.08600000000000001, 192.0, 0.0, 0.0, 0.0, 0.0, 0.0, 0.0, 0.0, 0.0, 0.0, 1.696108711549023E9, 0.0, 2023-09-30 16:18:31.549
243.0, 153197.98477864085, 154408.8905345071, -159610.7226146129, -160167.07988584996, 154531.4675011, -169769.79163525006, 66347.73359867735, 79383.78505513491, -0.08, 0.978, -0.08600000000000001, 192.0, 0.0, 0.0, 0.0, 0.0, 0.0, 0.0, 0.0, 0.0, 0.0, 1.6961087115490398E9, 0.0, 2023-09-30 16:18:31.549
244.0, 153748.66470678625, 154415.97603749944, -159621.6302659071, -160225.2167731782, 154535.7813877799, -169794.579719851, 66123.27738085717, 79498.9635943131, -0.078, 0.984, -0.08600000000000001, 192.0, 253.0, 144.0, 30.0, 192.0, 253.0, 80.0, 0.0, 0.0, 0.0, 1.6961087116416357E9, 0.0, 2023-09-30 16:18:31.641
245.0, 153508.85284052527, 154410.7904327858, -159651.46984475493, -160084.44548659868, 154532.33921913378, -169764.69543751425, 66184.65527113143, 79650.50842172008, -0.078, 0.984, -0.08600000000000001, 192.0, 0.0, 0.0, 0.0, 0.0, 0.0, 0.0, 0.0, 0.0, 0.0, 1.6961087116417346E9, 0.0, 2023-09-30 16:18:31.641
246.0, 153090.4728878108, 154401.4027001146, -159648.36295227564, -160094.01203322556, 154525.723102775, -169738.90152441282, 66381.8647124606, 79558.30747584194, -0.078, 0.984, -0.08600000000000001, 192.0, 0.0, 0.0, 0.0, 0.0, 0.0, 0.0, 0.0, 0.0, 0.0, 1.6961087116417608E9, 0.0, 2023-09-30 16:18:31.641
247.0, 153119.01606548025, 154403.5037640934, -159618.65748389452, -160117.5037166481, 154526.79598650886, -169754.39128332035, 66390.62659628708, 79427.25919810048, -0.078, 0.984, -0.08600000000000001, 192.0, 0.0, 0.0, 0.0, 0.0, 0.0, 0.0, 0.0, 0.0, 0.0, 1.696108711641785E9, 0.0, 2023-09-30 16:18:31.641
248.0, 153734.44899731266, 154415.93133401053, -159624.96067583092, -160223.54039234406, 154535.69198080208, -169790.60110933796, 66153.85456727202, 79515.74975439903, -0.078, 0.984, -0.08600000000000001, 192.0, 0.0, 0.0, 0.0, 0.0, 0.0, 0.0, 0.0, 0.0, 0.0, 1.6961087116418047E9, 0.0, 2023-09-30 16:18:31.641
249.0, 153635.94485949815, 154414.88080202113, -159657.97420239143, -160073.22491088213, 154535.89314650217, -169766.79650149305, 66174.93226229337, 79721.92224525478, -0.078, 0.984, -0.08600000000000001, 192.0, 0.0, 0.0, 0.0, 0.0, 0.0, 0.0, 0.0, 0.0, 0.0, 1.696108711641826E9, 0.0, 2023-09-30 16:18:31.641
250.0, 153231.6241540461, 154408.9575897405, -159661.43872278198, -160063.16662587723, 154532.49568134497, -169739.63913197984, 66379.45072405944, 79687.34409658243, -0.078, 0.984, -0.08600000000000001, 192.0, 0.0, 0.0, 0.0, 0.0, 0.0, 0.0, 0.0, 0.0, 0.0, 1.696108711641852E9, 0.0, 2023-09-30 16:18:31.641
251.0, 153140.31727794616, 154409.0917002072, -159634.01313233533, -160094.30260590347, 154532.65214355616, -169744.4224052933, 66463.58269018921, 79567.56109804644, -0.078, 0.984, -0.08600000000000001, 192.0, 0.0, 0.0, 0.0, 0.0, 0.0, 0.0, 0.0, 0.0, 0.0, 1.6961087116418777E9, 0.0, 2023-09-30 16:18:31.641
252.0, 153764.4450383717, 154420.3569794127, -159627.0840915542, -160199.22169437667, 154540.4305506266, -169782.08509470048, 66250.1905858744, 79627.91080807577, -0.078, 0.984, -0.08600000000000001, 192.0, 0.0, 0.0, 0.0, 0.0, 0.0, 0.0, 0.0, 0.0, 0.0, 1.696108711641904E9, 0.0, 2023-09-30 16:18:31.641
253.0, 153832.08141709346, 154424.06736899226, -159660.58935649268, -160066.42998056771, 154544.56562335082, -169766.6176875374, 66234.49966126677, 79862.49236613422, -0.078, 0.984, -0.08600000000000001, 192.0, 0.0, 0.0, 0.0, 0.0, 0.0, 0.0, 0.0, 0.0, 0.0, 1.6961087116419256E9, 0.0, 2023-09-30 16:18:31.641
254.0, 153439.2718600359, 154415.5960578437, -159667.31723157375, -160018.2619712665, 154538.5306523479, -169732.08424235394, 66437.49820440987, 79875.59048838503, -0.07200000000000001, 0.982, -0.08600000000000001, 192.0, 253.0, 192.0, 30.0, 176.0, 253.0, 80.0, 0.0, 0.0, 0.0, 1.6961087116419435E9, 0.0, 2023-09-30 16:18:31.641
255.0, 153235.8262820037, 154409.4940316074, -159637.36589400363, -160053.22009959462, 154533.34504763427, -169723.1658963163, 66578.7165258785, 79741.43531816428, -0.07200000000000001, 0.982, -0.08600000000000001, 192.0, 0.0, 0.0, 0.0, 0.0, 0.0, 0.0, 0.0, 0.0, 0.0, 1.69610871164196E9, 0.0, 2023-09-30 16:18:31.641
0.0, 153753.49268358859, 154420.51344162386, -159618.99276006137, -160174.8135894315, 154540.8775855157, -169762.10263515744, 66386.20095088494, 79729.16421045832, -0.07200000000000001, 0.982, -0.08600000000000001, 192.0, 0.0, 0.0, 0.0, 0.0, 0.0, 0.0, 0.0, 0.0, 0.0, 1.6961087116419892E9, 0.0, 2023-09-30 16:18:31.641
1.0, 153947.52817720512, 154423.84385154772, -159652.3862662776, -160081.49505633058, 154544.00682973943, -169755.46416705422, 66299.83381030963, 79929.54759950013, -0.07200000000000001, 0.982, -0.08600000000000001, 192.0, 0.0, 0.0, 0.0, 0.0, 0.0, 0.0, 0.0, 0.0, 0.0, 1.6961087116420283E9, 0.0, 2023-09-30 16:18:31.642
2.0, 153533.48446291502, 154416.82540378874, -159661.55048150427, -160030.93541037268, 154539.49177735948, -169722.0036056046, 66459.26880350933, 79954.11216665652, -0.07200000000000001, 0.982, -0.08600000000000001, 192.0, 0.0, 0.0, 0.0, 0.0, 0.0, 0.0, 0.0, 0.0, 0.0, 1.696108711642141E9, 0.0, 2023-09-30 16:18:31.642
3.0, 153220.3141713517, 154414.27730492083, -159643.40086500655, -160056.2375850961, 154538.39654188117, -169713.1076113114, 66615.99923562995, 79797.85112116947, -0.07200000000000001, 0.982, -0.08600000000000001, 192.0, 0.0, 0.0, 0.0, 0.0, 0.0, 0.0, 0.0, 0.0, 0.0, 1.6961087116422288E9, 0.0, 2023-09-30 16:18:31.642
4.0, 153634.9166792532, 154425.31906668175, -159622.21141126292, -160192.20324661772, 154546.24200418498, -169752.13375713036, 66453.50205343986, 79731.0194052481, -0.07200000000000001, 0.982, -0.08600000000000001, 192.0, 0.0, 0.0, 0.0, 0.0, 0.0, 0.0, 0.0, 0.0, 0.0, 1.6961087116422684E9, 0.0, 2023-09-30 16:18:31.642
5.0, 153991.33759633751, 154430.45996790647, -159649.74876043186, -160150.62900193085, 154550.26531818692, -169757.09584439945, 66309.33330170314, 79918.32702378357, -0.07200000000000001, 0.982, -0.08600000000000001, 192.0, 0.0, 0.0, 0.0, 0.0, 0.0, 0.0, 0.0, 0.0, 0.0, 1.6961087116423097E9, 0.0, 2023-09-30 16:18:31.642
6.0, 153640.12463571128, 154423.24035444742, -159668.59128100768, -160074.34249810487, 154545.19147219558, -169721.82479164898, 66447.22121324792, 80005.36471669254, -0.07200000000000001, 0.982, -0.08600000000000001, 192.0, 0.0, 0.0, 0.0, 0.0, 0.0, 0.0, 0.0, 0.0, 0.0, 1.6961087116423557E9, 0.0, 2023-09-30 16:18:31.642
7.0, 153292.26443675332, 154416.6018863442, -159653.39209477807, -160075.72830626112, 154540.3858471377, -169703.78693387355, 66635.42290156161, 79874.2493837177, -0.07200000000000001, 0.982, -0.08600000000000001, 192.0, 0.0, 0.0, 0.0, 0.0, 0.0, 0.0, 0.0, 0.0, 0.0, 1.696108711642392E9, 0.0, 2023-09-30 16:18:31.642
8.0, 153571.97416686706, 154423.1062439807, -159625.5865246757, -160176.93700515473, 154544.34210590628, -169734.4758790107, 66531.01790321087, 79775.0299900806, -0.07, 0.984, -0.09, 192.0, 253.0, 208.0, 30.0, 192.0, 253.0, 48.0, 0.0, 0.0, 0.0, 1.6961087116424177E9, 0.0, 2023-09-30 16:18:31.642
9.0, 154052.42491393388, 154433.25393596338, -159647.9829726199, -160186.816476204, 154552.74636182145, -169755.03948390955, 66341.34099976314, 79922.26093080771, -0.07, 0.984, -0.09, 192.0, 0.0, 0.0, 0.0, 0.0, 0.0, 0.0, 0.0, 0.0, 0.0, 1.696108711642444E9, 0.0, 2023-09-30 16:18:31.642
10.0, 153760.71229704766, 154427.26366844936, -159667.36193506265, -160087.1276959333, 154548.8348065418, -169722.7188614272, 66442.39323644558, 80039.42877524243, -0.07, 0.984, -0.09, 192.0, 0.0, 0.0, 0.0, 0.0, 0.0, 0.0, 0.0, 0.0, 0.0, 1.6961087116735384E9, 0.0, 2023-09-30 16:18:31.673
11.0, 153347.7414664914, 154420.4463863905, -159659.04708612527, -160094.7272890481, 154544.25269892844, -169702.31171873948, 66644.38595108819, 79926.8653901655, -0.07, 0.984, -0.09, 192.0, 0.0, 0.0, 0.0, 0.0, 0.0, 0.0, 0.0, 0.0, 0.0, 1.6961087116735673E9, 0.0, 2023-09-30 16:18:31.673
12.0, 153458.09202886725, 154422.39098815812, -159627.173498532, -160164.1518073263, 154544.49856811747, -169723.59057946093, 66612.71352919503, 79813.81026671056, -0.07, 0.984, -0.09, 192.0, 0.0, 0.0, 0.0, 0.0, 0.0, 0.0, 0.0, 0.0, 0.0, 1.696108711673581E9, 0.0, 2023-09-30 16:18:31.673
13.0, 154010.0013029577, 154431.06346500677, -159641.05393183875, -160237.24201169517, 154550.55589086484, -169752.08905364145, 66407.21159067293, 79934.04030013566, -0.07, 0.984, -0.09, 192.0, 0.0, 0.0, 0.0, 0.0, 0.0, 0.0, 0.0, 0.0, 0.0, 1.6961087116735933E9, 0.0, 2023-09-30 16:18:31.673
14.0, 153802.7112248792, 154429.47649115045, -159670.17825486403, -160096.7389460491, 154550.4888356315, -169726.5633614735, 66485.4426962665, 80097.4539038484, -0.07, 0.984, -0.09, 192.0, 0.0, 0.0, 0.0, 0.0, 0.0, 0.0, 0.0, 0.0, 0.0, 1.6961087116736045E9, 0.0, 2023-09-30 16:18:31.673
15.0, 153361.71130677598, 154418.88176427863, -159653.99559187837, -160102.57275135192, 154542.4198558831, -169699.78597161605, 66710.18948676462, 79993.96532702033, -0.07, 0.984, -0.09, 192.0, 0.0, 0.0, 0.0, 0.0, 0.0, 0.0, 0.0, 0.0, 0.0, 1.6961087117085607E9, 0.0, 2023-09-30 16:18:31.708
16.0, 153314.61618120864, 154415.97603749944, -159627.44171946548, -160135.20629825667, 154538.75416979243, -169710.8053816325, 66763.27487984597, 79804.84721718398, -0.07, 0.984, -0.09, 192.0, 0.0, 0.0, 0.0, 0.0, 0.0, 0.0, 0.0, 0.0, 0.0, 1.6961087117085953E9, 0.0, 2023-09-30 16:18:31.708
17.0, 153897.1249934584, 154426.21313645996, -159632.60497243464, -160279.17388429333, 154545.7279140625, -169748.55747801752, 66566.46776991698, 79816.11249638945, -0.07, 0.984, -0.09, 192.0, 0.0, 0.0, 0.0, 0.0, 0.0, 0.0, 0.0, 0.0, 0.0, 1.6961087117086112E9, 0.0, 2023-09-30 16:18:31.708
18.0, 153818.29039076454, 154424.58145911474, -159662.66806872704, -160114.5979898689, 154545.01265823992, -169727.68094869627, 66611.90886639463, 79957.24141088026, -0.07, 0.984, -0.09, 192.0, 0.0, 0.0, 0.0, 0.0, 0.0, 0.0, 0.0, 0.0, 0.0, 1.696108711708624E9, 0.0, 2023-09-30 16:18:31.708
19.0, 153369.28854814632, 154417.98769450042, -159657.12483610213, -160107.0878037319, 154540.89993726017, -169701.68586989475, 66839.89665983876, 79861.41948240036, -0.076, 0.988, -0.094, 192.0, 253.0, 160.0, 30.0, 224.0, 253.0, 16.0, 0.0, 0.0, 0.0, 1.6961087117247283E9, 0.0, 2023-09-30 16:18:31.724
20.0, 153168.2122550264, 154414.27730492083, -159629.69924565544, -160101.5892745959, 154537.3236581473, -169703.92104434027, 66948.23556521363, 79673.97775339815, -0.076, 0.988, -0.094, 192.0, 0.0, 0.0, 0.0, 0.0, 0.0, 0.0, 0.0, 0.0, 0.0, 1.6961087118169384E9, 0.0, 2023-09-30 16:18:31.816
21.0, 153714.8241656809, 154418.77000555635, -159619.79742286177, -160286.95229136376, 154538.30713490333, -169737.73923370114, 66746.3546092933, 79668.72509345115, -0.076, 0.988, -0.094, 192.0, 0.0, 0.0, 0.0, 0.0, 0.0, 0.0, 0.0, 0.0, 0.0, 1.696108711817064E9, 0.0, 2023-09-30 16:18:31.817
22.0, 153743.76967475054, 154416.1548514551, -159642.17151906152, -160127.58435339743, 154536.0272569689, -169719.72372767018, 66722.32648400385, 79847.22612467124, -0.076, 0.988, -0.094, 192.0, 0.0, 0.0, 0.0, 0.0, 0.0, 0.0, 0.0, 0.0, 0.0, 1.6961087118171003E9, 0.0, 2023-09-30 16:18:31.817
23.0, 153279.50159066936, 154409.67284556304, -159647.1336063306, -160101.47751587362, 154532.04864645586, -169688.34187845493, 66920.7429195336, 79806.25537708466, -0.076, 0.988, -0.094, 192.0, 0.0, 0.0, 0.0, 0.0, 0.0, 0.0, 0.0, 0.0, 0.0, 1.6961087118171608E9, 0.0, 2023-09-30 16:18:31.817
24.0, 153007.99495077075, 154403.90609549358, -159622.65844615203, -160072.48730331508, 154527.13126267568, -169679.8482155619, 67066.18572070429, 79609.40356366677, -0.076, 0.988, -0.094, 192.0, 0.0, 0.0, 0.0, 0.0, 0.0, 0.0, 0.0, 0.0, 0.0, 1.6961087118171933E9, 0.0, 2023-09-30 16:18:31.817
25.0, 153503.35431138927, 154414.88080202113, -159610.38733844607, -160258.7220381167, 154534.3285243903, -169719.5002102256, 66882.47673302612, 79532.04417610695, -0.076, 0.988, -0.094, 192.0, 0.0, 0.0, 0.0, 0.0, 0.0, 0.0, 0.0, 0.0, 0.0, 1.6961087118172214E9, 0.0, 2023-09-30 16:18:31.817
26.0, 153706.10698534336, 154418.79235730082, -159644.20552780695, -160155.92636536676, 154537.4801203585, -169716.23685553516, 66788.77822026947, 79684.14779712532, -0.076, 0.988, -0.094, 192.0, 0.0, 0.0, 0.0, 0.0, 0.0, 0.0, 0.0, 0.0, 0.0, 1.6961087118172483E9, 0.0, 2023-09-30 16:18:31.817
27.0, 153277.69109936847, 154410.36574964115, -159644.1831760625, -160093.94497799219, 154531.2663353999, -169682.08339000744, 66947.45325415769, 79683.90192793631, -0.076, 0.988, -0.094, 192.0, 0.0, 0.0, 0.0, 0.0, 0.0, 0.0, 0.0, 0.0, 0.0, 1.6961087118172748E9, 0.0, 2023-09-30 16:18:31.817
28.0, 152924.73470267473, 154403.2355431599, -159625.74298688688, -160058.36100081934, 154525.8125097528, -169669.32054392344, 67111.26918927065, 79486.82659707387, -0.076, 0.988, -0.094, 192.0, 0.0, 0.0, 0.0, 0.0, 0.0, 0.0, 0.0, 0.0, 0.0, 1.696108711817304E9, 0.0, 2023-09-30 16:18:31.817
29.0, 153283.43549769348, 154410.455156619, -159607.6157221336, -160245.9815437772, 154529.43349235458, -169705.21744551868, 66960.84194908643, 79365.85895608175, -0.082, 0.978, -0.092, 192.0, 253.0, 112.0, 30.0, 144.0, 253.0, 32.0, 0.0, 0.0, 0.0, 1.69610871183306E9, 0.0, 2023-09-30 16:18:31.833
30.0, 153634.53669959746, 154413.0926624647, -159627.15114678754, -160189.38692681634, 154529.8805272437, -169711.34182349945, 66809.63239784628, 79511.27940550797, -0.082, 0.978, -0.092, 192.0, 0.0, 0.0, 0.0, 0.0, 0.0, 0.0, 0.0, 0.0, 0.0, 1.6961087118490305E9, 0.0, 2023-09-30 16:18:31.849
31.0, 153248.99145948785, 154404.57664782723, -159639.22108879342, -160084.3337278764, 154522.90678297365, -169677.12130273835, 66939.40662615378, 79578.26758364053, -0.082, 0.978, -0.092, 192.0, 0.0, 0.0, 0.0, 0.0, 0.0, 0.0, 0.0, 0.0, 0.0, 1.6961087118769572E9, 0.0, 2023-09-30 16:18:31.876
63.0, 153594.43767004463, 154408.4882031069, -159617.60695190512, -160233.7104360712, 154529.09821618776, -169717.33209101346, 66775.76950499648, 79408.81900892485, -0.082, 0.978, -0.092, 192.0, 0.0, 0.0, 0.0, 0.0, 0.0, 0.0, 0.0, 0.0, 0.0, 1.696108711877008E9, 0.0, 2023-09-30 16:18:31.877
81.0, 153536.94898330557, 154410.07517696323, -159656.34252504617, -160074.11898066034, 154532.89801274517, -169664.6043258434, 66566.40071468362, 79953.59807653405, -0.082, 0.978, -0.092, 192.0, 0.0, 0.0, 0.0, 0.0, 0.0, 0.0, 0.0, 0.0, 0.0, 1.6961087119178965E9, 0.0, 2023-09-30 16:18:31.917
82.0, 153183.34438602263, 154404.86722050517, -159648.25119355335, -160087.01593721105, 154529.7687685214, -169645.67239828975, 66780.77629575448, 79843.73925253621, -0.082, 0.978, -0.092, 192.0, 0.0, 0.0, 0.0, 0.0, 0.0, 0.0, 0.0, 0.0, 0.0, 1.6961087119179215E9, 0.0, 2023-09-30 16:18:31.917
83.0, 153384.42067914255, 154410.47750836343, -159615.10355652616, -160156.73102816715, 154533.1662336786, -169671.06397999095, 66744.87939415924, 79737.47905939569, -0.082, 0.978, -0.092, 192.0, 0.0, 0.0, 0.0, 0.0, 0.0, 0.0, 0.0, 0.0, 0.0, 1.696108711917935E9, 0.0, 2023-09-30 16:18:31.917
84.0, 153941.18028177982, 154419.1052817232, -159629.185155533, -160198.88641820985, 154539.24590817047, -169695.09210528043, 66567.42889492857, 79876.05987501859, -0.082, 0.978, -0.092, 192.0, 0.0, 0.0, 0.0, 0.0, 0.0, 0.0, 0.0, 0.0, 0.0, 1.6961087119179473E9, 0.0, 2023-09-30 16:18:31.917
85.0, 153731.5879740224, 154411.97507524193, -159653.19092907797, -160067.90519570175, 154533.90384124566, -169661.40802638629, 66682.3839166622, 80037.30535951917, -0.082, 0.978, -0.092, 192.0, 0.0, 0.0, 0.0, 0.0, 0.0, 0.0, 0.0, 0.0, 0.0, 1.6961087119179587E9, 0.0, 2023-09-30 16:18:31.917
86.0, 153325.56853599174, 154405.4930693499, -159649.97227787643, -160082.92556797573, 154529.83582375478, -169637.87163947485, 66926.8449457699, 79940.52230602769, -0.082, 0.978, -0.092, 192.0, 0.0, 0.0, 0.0, 0.0, 0.0, 0.0, 0.0, 0.0, 0.0, 1.6961087119179704E9, 0.0, 2023-09-30 16:18:31.917
87.0, 153342.26528909986, 154409.2481624184, -159623.44075720798, -160129.21603074265, 154532.3168673893, -169655.73068329462, 66971.54843468052, 79796.24179556868, -0.082, 0.978, -0.092, 192.0, 0.0, 0.0, 0.0, 0.0, 0.0, 0.0, 0.0, 0.0, 0.0, 1.6961087119343557E9, 0.0, 2023-09-30 16:18:31.934
88.0, 153934.7429793767, 154421.22869744644, -159627.06173980972, -160240.25949719662, 154541.1681581936, -169691.94050931223, 66777.53529280845, 79866.09099699152, -0.082, 0.978, -0.092, 192.0, 0.0, 0.0, 0.0, 0.0, 0.0, 0.0, 0.0, 0.0, 0.0, 1.6961087119733443E9, 0.0, 2023-09-30 16:18:31.973
89.0, 153820.10088206542, 154418.1441567116, -159652.67683895552, -160097.65536757177, 154539.24590817047, -169666.9959625001, 66838.39909296026, 80039.76405140925, -0.082, 0.978, -0.092, 192.0, 0.0, 0.0, 0.0, 0.0, 0.0, 0.0, 0.0, 0.0, 0.0, 1.6961087119734347E9, 0.0, 2023-09-30 16:18:31.973
90.0, 153407.55473465382, 154409.4046246296, -159648.00532436435, -160102.7292135631, 154532.80860576732, -169639.16804065325, 67066.8786247824, 79970.38423661998, -0.082, 0.978, -0.092, 192.0, 0.0, 0.0, 0.0, 0.0, 0.0, 0.0, 0.0, 0.0, 0.0, 1.6961087119734635E9, 0.0, 2023-09-30 16:18:31.973
91.0, 153303.0379775808, 154409.2034589295, -159625.0724345532, -160113.5027543906, 154532.56273657831, -169647.4828895906, 67157.31378284858, 79814.27965334411, -0.08, 0.984, -0.094, 192.0, 253.0, 128.0, 30.0, 192.0, 253.0, 16.0, 0.0, 0.0, 0.0, 1.6961087119734871E9, 0.0, 2023-09-30 16:18:31.973
92.0, 153884.33979562996, 154421.38515965763, -159621.8761350961, -160276.40226798085, 154541.3693238937, -169689.68298312224, 66947.58736462443, 79838.3971856114, -0.08, 0.984, -0.094, 192.0, 0.0, 0.0, 0.0, 0.0, 0.0, 0.0, 0.0, 0.0, 0.0, 1.696108711989048E9, 0.0, 2023-09-30 16:18:31.989
93.0, 153919.49908965817, 154417.6524183336, -159645.34546677416, -160126.46676617465, 154537.9718587365, -169670.72870382413, 66931.15883244977, 80026.71063264736, -0.08, 0.984, -0.094, 192.0, 0.0, 0.0, 0.0, 0.0, 0.0, 0.0, 0.0, 0.0, 0.0, 1.6961087120270672E9, 0.0, 2023-09-30 16:18:32.027
94.0, 153495.68766304108, 154410.61161883018, -159644.92078362952, -160090.86043725736, 154533.34504763427, -169642.90078197728, 67117.90765737387, 79986.633954839, -0.08, 0.984, -0.094, 192.0, 0.0, 0.0, 0.0, 0.0, 0.0, 0.0, 0.0, 0.0, 0.0, 1.696108712027105E9, 0.0, 2023-09-30 16:18:32.027
95.0, 153261.1284567271, 154403.9507989825, -159618.8139461057, -160048.14625360325, 154527.48889058697, -169639.12333716435, 67222.93850456936, 79802.65674622735, -0.08, 0.984, -0.094, 192.0, 0.0, 0.0, 0.0, 0.0, 0.0, 0.0, 0.0, 0.0, 0.0, 1.6961087120271227E9, 0.0, 2023-09-30 16:18:32.027
96.0, 153763.75213429358, 154414.2549531764, -159616.31055072672, -160264.22056725272, 154534.50733834592, -169682.21750047416, 66997.74467918214, 79761.23896375168, -0.08, 0.984, -0.094, 192.0, 0.0, 0.0, 0.0, 0.0, 0.0, 0.0, 0.0, 0.0, 0.0, 1.6961087120271378E9, 0.0, 2023-09-30 16:18:32.027
97.0, 153928.0374560401, 154416.1101479662, -159634.37076024662, -160142.82824311595, 154536.2731261579, -169677.88126204984, 66886.2318260946, 79944.43386130738, -0.08, 0.984, -0.094, 192.0, 0.0, 0.0, 0.0, 0.0, 0.0, 0.0, 0.0, 0.0, 0.0, 1.6961087120914562E9, 0.0, 2023-09-30 16:18:32.091
98.0, 153495.30768338536, 154407.3482641397, -159639.5340132158, -160083.1267336758, 154530.14874817716, -169647.16996516826, 67016.43073754678, 79955.05093992365, -0.08, 0.984, -0.094, 192.0, 0.0, 0.0, 0.0, 0.0, 0.0, 0.0, 0.0, 0.0, 0.0, 1.6961087120915284E9, 0.0, 2023-09-30 16:18:32.091
99.0, 153161.73024913433, 154400.57568556973, -159621.04912055127, -160049.6885239707, 154524.9631434635, -169638.56454355296, 67130.98342788023, 79789.60332746546, -0.08, 0.984, -0.094, 192.0, 0.0, 0.0, 0.0, 0.0, 0.0, 0.0, 0.0, 0.0, 0.0, 1.6961087120915525E9, 0.0, 2023-09-30 16:18:32.091
100.0, 153562.5417307069, 154408.33174089572, -159608.04040527827, -160250.80952057953, 154529.6123063102, -169677.59068937192, 66922.08402420093, 79724.85032377843, -0.08, 0.984, -0.094, 192.0, 0.0, 0.0, 0.0, 0.0, 0.0, 0.0, 0.0, 0.0, 0.0, 1.696108712091581E9, 0.0, 2023-09-30 16:18:32.091
101.0, 153874.84030423645, 154411.9080200086, -159628.20167877694, -160179.552159256, 154532.20510866703, -169683.75977084157, 66739.38086502324, 79907.46407597829, -0.08, 0.982, -0.094, 192.0, 253.0, 128.0, 30.0, 176.0, 253.0, 16.0, 0.0, 0.0, 0.0, 1.6961087120916057E9, 0.0, 2023-09-30 16:18:32.091
102.0, 153487.55162805936, 154406.20832517248, -159640.6292486941, -160087.26180640006, 154528.964105721, -169654.45663386068, 66832.49823242406, 79968.48433834128, -0.08, 0.982, -0.094, 192.0, 0.0, 0.0, 0.0, 0.0, 0.0, 0.0, 0.0, 0.0, 0.0, 1.696108712091633E9, 0.0, 2023-09-30 16:18:32.091
103.0, 153117.80907127965, 154397.75936576838, -159621.00441706233, -160041.4854337556, 154522.6162102957, -169639.30215111998, 66969.7602951241, 79808.04351664109, -0.08, 0.982, -0.094, 192.0, 0.0, 0.0, 0.0, 0.0, 0.0, 0.0, 0.0, 0.0, 0.0, 1.6961087120916572E9, 0.0, 2023-09-30 16:18:32.091
104.0, 153396.71413859297, 154403.3025983933, -159602.94420754246, -160201.72508975567, 154525.5666405638, -169671.73453232463, 66821.3670636853, 79693.06614316299, -0.08, 0.982, -0.094, 192.0, 0.0, 0.0, 0.0, 0.0, 0.0, 0.0, 0.0, 0.0, 0.0, 1.6961087120916853E9, 0.0, 2023-09-30 16:18:32.091
105.0, 153867.19600763274, 154410.2986944078, -159625.5194694423, -160204.02731943456, 154530.729893533, -169688.78891334403, 66612.40060477264, 79840.05121470109, -0.08, 0.982, -0.094, 192.0, 0.0, 0.0, 0.0, 0.0, 0.0, 0.0, 0.0, 0.0, 0.0, 1.6961087120917132E9, 0.0, 2023-09-30 16:18:32.091
106.0, 153579.46200125958, 154407.1470984396, -159653.01211512234, -160088.7370215341, 154529.7240650325, -169659.1057967074, 66700.86880932676, 79950.15590788794, -0.08, 0.982, -0.094, 192.0, 0.0, 0.0, 0.0, 0.0, 0.0, 0.0, 0.0, 0.0, 0.0, 1.6961087120917456E9, 0.0, 2023-09-30 16:18:32.091
107.0, 153208.5124502793, 154402.2520664039, -159641.2774492833, -160085.47366684364, 154527.08655918678, -169640.41973834275, 66888.64581449579, 79820.80636272507, -0.08, 0.982, -0.094, 192.0, 0.0, 0.0, 0.0, 0.0, 0.0, 0.0, 0.0, 0.0, 0.0, 1.69610871209178E9, 0.0, 2023-09-30 16:18:32.091
108.0, 153357.77739975185, 154405.11308969418, -159609.6273791346, -160156.3510485114, 154528.15944292062, -169662.45855837569, 66836.72271212611, 79687.36644832688, -0.08, 0.982, -0.094, 192.0, 0.0, 0.0, 0.0, 0.0, 0.0, 0.0, 0.0, 0.0, 0.0, 1.6961087120918195E9, 0.0, 2023-09-30 16:18:32.091
109.0, 153924.79645309408, 154411.21511593045, -159619.10451878363, -160224.3227034, 154531.64631505567, -169686.59844238742, 66620.91661941011, 79797.20292058027, -0.08, 0.982, -0.094, 192.0, 0.0, 0.0, 0.0, 0.0, 0.0, 0.0, 0.0, 0.0, 0.0, 1.6961087121072254E9, 0.0, 2023-09-30 16:18:32.107
110.0, 153713.9747993916, 154406.9459327395, -159648.34060053117, -160074.58836729388, 154529.09821618776, -169657.5858780844, 66690.96698653305, 79954.17922188989, -0.08, 0.982, -0.094, 192.0, 0.0, 0.0, 0.0, 0.0, 0.0, 0.0, 0.0, 0.0, 0.0, 1.6961087121072538E9, 0.0, 2023-09-30 16:18:32.107
111.0, 153286.3188727282, 154401.46975534793, -159644.56315571824, -160097.7447745496, 154526.1701376641, -169635.27883711804, 66903.15209664727, 79865.37574116894, -0.084, 0.984, -0.088, 192.0, 253.0, 96.0, 30.0, 192.0, 253.0, 64.0, 0.0, 0.0, 0.0, 1.6961087122745893E9, 0.0, 2023-09-30 16:18:32.274
112.0, 153273.01958477733, 154404.01785421584, -159616.51171642682, -160134.91572557876, 154527.84651849826, -169650.72389253663, 66937.97611450865, 79732.29345468205, -0.084, 0.984, -0.088, 192.0, 0.0, 0.0, 0.0, 0.0, 0.0, 0.0, 0.0, 0.0, 0.0, 1.6961087122746246E9, 0.0, 2023-09-30 16:18:32.274
113.0, 153867.0171936771, 154413.31617990925, -159616.53406817128, -160253.31291595852, 154533.8814895012, -169685.1008755089, 66726.59566719481, 79811.95507192076, -0.084, 0.984, -0.088, 192.0, 0.0, 0.0, 0.0, 0.0, 0.0, 0.0, 0.0, 0.0, 0.0, 1.6961087122746413E9, 0.0, 2023-09-30 16:18:32.274
114.0, 153785.96976828217, 154409.76225254088, -159641.50096672785, -160090.25694015707, 154531.53455633338, -169660.37984614132, 66762.69373449012, 80006.97404229332, -0.084, 0.984, -0.088, 192.0, 0.0, 0.0, 0.0, 0.0, 0.0, 0.0, 0.0, 0.0, 0.0, 1.6961087122746556E9, 0.0, 2023-09-30 16:18:32.274
115.0, 153365.3546411222, 154402.40852861508, -159645.2337080519, -160095.86722801536, 154526.75128301996, -169633.04366267248, 66977.69516440573, 79957.71079751382, -0.084, 0.984, -0.088, 192.0, 0.0, 0.0, 0.0, 0.0, 0.0, 0.0, 0.0, 0.0, 0.0, 1.69610871227467E9, 0.0, 2023-09-30 16:18:32.274
116.0, 153231.35593311262, 154401.15683092558, -159617.4281379495, -160094.6825855592, 154525.49958533046, -169638.3857295973, 67069.40437190585, 79799.8851299149, -0.084, 0.984, -0.088, 192.0, 0.0, 0.0, 0.0, 0.0, 0.0, 0.0, 0.0, 0.0, 0.0, 1.6961087122746856E9, 0.0, 2023-09-30 16:18:32.274
128.0, 153297.49474495588, 154399.45809834698, -159629.36396948862, -160057.35517231884, 154524.04672194086, -169632.0825376609, 67105.81536362355, 79809.09404863049, -0.084, 0.984, -0.088, 192.0, 0.0, 0.0, 0.0, 0.0, 0.0, 0.0, 0.0, 0.0, 0.0, 1.6961087122747016E9, 0.0, 2023-09-30 16:18:32.274
119.0, 153461.55654925783, 154401.11212743667, -159635.26483002483, -160085.9877569661, 154524.8290329968, -169631.65785451626, 66995.04011810305, 79971.27830639819, -0.084, 0.984, -0.088, 192.0, 0.0, 0.0, 0.0, 0.0, 0.0, 0.0, 0.0, 0.0, 0.0, 1.6961087122747164E9, 0.0, 2023-09-30 16:18:32.274
126.0, 153964.69431694678, 154410.701025808, -159630.45920496693, -160175.4170865318, 154531.2663353999, -169676.92013703825, 66780.6645370322, 79876.7974825856, -0.084, 0.984, -0.088, 192.0, 0.0, 0.0, 0.0, 0.0, 0.0, 0.0, 0.0, 0.0, 0.0, 1.6961087122747326E9, 0.0, 2023-09-30 16:18:32.274
121.0, 153717.4393197822, 154408.1529269401, -159611.14729775756, -160267.7297911322, 154529.41114061011, -169672.02510500254, 66902.07921291342, 79744.16223098781, -0.082, 0.988, -0.088, 192.0, 253.0, 112.0, 30.0, 224.0, 253.0, 64.0, 0.0, 0.0, 0.0, 1.6961087122747607E9, 0.0, 2023-09-30 16:18:32.274
122.0, 153924.75174960517, 154411.0586537193, -159630.2803910113, -160145.24223151713, 154532.09334994477, -169669.99109625712, 66792.9132929937, 79920.38338427346, -0.082, 0.988, -0.088, 192.0, 0.0, 0.0, 0.0, 0.0, 0.0, 0.0, 0.0, 0.0, 0.0, 1.6961087122747889E9, 0.0, 2023-09-30 16:18:32.274
123.0, 153537.48542517252, 154403.1461361821, -159637.3435422592, -160076.22004463914, 154526.50541383095, -169639.01157844206, 66938.93723952022, 79937.05778563712, -0.082, 0.988, -0.088, 192.0, 0.0, 0.0, 0.0, 0.0, 0.0, 0.0, 0.0, 0.0, 0.0, 1.6961087122748044E9, 0.0, 2023-09-30 16:18:32.274
124.0, 153227.6678952775, 154394.16073491107, -159612.39899544706, -160022.75467190205, 154519.03993118287, -169626.47224980264, 67088.93979655979, 79770.76080688964, -0.082, 0.988, -0.088, 192.0, 0.0, 0.0, 0.0, 0.0, 0.0, 0.0, 0.0, 0.0, 0.0, 1.6961087122748191E9, 0.0, 2023-09-30 16:18:32.274
129.0, 153555.85855911477, 154401.8944384926, -159604.4641261654, -160189.09635413843, 154524.04672194086, -169660.8939362638, 67008.9652548987, 79692.21677687368, -0.082, 0.988, -0.088, 192.0, 0.0, 0.0, 0.0, 0.0, 0.0, 0.0, 0.0, 0.0, 0.0, 1.696108712274835E9, 0.0, 2023-09-30 16:18:32.274
130.0, 154046.8593295645, 154405.87304900563, -159615.7294053709, -160209.50349682613, 154525.968971964, -169678.7082765947, 66813.81217405942, 79825.85785697197, -0.082, 0.988, -0.088, 192.0, 0.0, 0.0, 0.0, 0.0, 0.0, 0.0, 0.0, 0.0, 0.0, 1.6961087122748501E9, 0.0, 2023-09-30 16:18:32.274
131.0, 153779.28659669, 154400.73214778092, -159635.19777479145, -160077.85172198436, 154522.727969018, -169649.31573263597, 66905.56608504846, 79934.59909374703, -0.082, 0.988, -0.088, 192.0, 0.0, 0.0, 0.0, 0.0, 0.0, 0.0, 0.0, 0.0, 0.0, 1.6961087122748644E9, 0.0, 2023-09-30 16:18:32.274
132.0, 153376.08347846073, 154394.4960110779, -159620.04329205077, -160038.4232447652, 154518.74935850495, -169630.76378473805, 67095.5335611741, 79796.59942347997, -0.084, 0.99, -0.088, 192.0, 253.0, 96.0, 30.0, 240.0, 253.0, 64.0, 0.0, 0.0, 0.0, 1.6961087122748804E9, 0.0, 2023-09-30 16:18:32.274
133.0, 153464.10464812574, 154396.55237156778, -159595.50107663884, -160131.74177786612, 154519.2634486274, -169652.78025302652, 67053.13230194239, 79645.61338968437, -0.084, 0.99, -0.088, 192.0, 0.0, 0.0, 0.0, 0.0, 0.0, 0.0, 0.0, 0.0, 0.0, 1.6961087122748952E9, 0.0, 2023-09-30 16:18:32.274
134.0, 154026.60864908798, 154406.5883048282, -159608.35332970065, -160237.24201169517, 154526.5724690643, -169684.40797143077, 66825.09980500935, 79734.72979482768, -0.084, 0.99, -0.088, 192.0, 0.0, 0.0, 0.0, 0.0, 0.0, 0.0, 0.0, 0.0, 0.0, 1.6961087122749095E9, 0.0, 2023-09-30 16:18:32.274
135.0, 153863.7761907311, 154401.22388615893, -159629.8333561222, -160079.66221328525, 154522.68326552908, -169656.043607717, 66873.42427652172, 79881.98308729925, -0.084, 0.99, -0.088, 192.0, 0.0, 0.0, 0.0, 0.0, 0.0, 0.0, 0.0, 0.0, 0.0, 1.696108712274924E9, 0.0, 2023-09-30 16:18:32.274
136.0, 153457.8238079338, 154392.2831883768, -159621.04912055127, -160055.6787914847, 154516.11185265923, -169630.85319171587, 67068.5326538721, 79775.00763833614, -0.084, 0.99, -0.088, 192.0, 0.0, 0.0, 0.0, 0.0, 0.0, 0.0, 0.0, 0.0, 0.0, 1.6961087122749388E9, 0.0, 2023-09-30 16:18:32.274
137.0, 153412.62858064516, 154392.7972784993, -159599.21146621843, -160095.7331175486, 154516.00009393695, -169644.06307268896, 67093.52190417313, 79607.48131364361, -0.084, 0.99, -0.088, 192.0, 0.0, 0.0, 0.0, 0.0, 0.0, 0.0, 0.0, 0.0, 0.0, 1.6961087122749536E9, 0.0, 2023-09-30 16:18:32.274
138.0, 153991.2034858708, 154401.78267977032, -159599.50203889635, -160262.09715152945, 154521.7221405175, -169681.0552097625, 66853.24065127858, 79647.44623272971, -0.084, 0.99, -0.088, 192.0, 0.0, 0.0, 0.0, 0.0, 0.0, 0.0, 0.0, 0.0, 0.0, 1.6961087122749684E9, 0.0, 2023-09-30 16:18:32.274
139.0, 153943.52721494762, 154398.47462159093, -159622.79255661878, -160085.1383906768, 154519.35285560525, -169659.57518334093, 66845.14931978576, 79819.15233363537, -0.084, 0.99, -0.088, 192.0, 0.0, 0.0, 0.0, 0.0, 0.0, 0.0, 0.0, 0.0, 0.0, 1.6961087122749834E9, 0.0, 2023-09-30 16:18:32.274
144.0, 153549.6447741562, 154385.9352929515, -159610.85672507965, -160047.25218382504, 154509.07105315579, -169630.67437776024, 66963.03242004305, 79763.18356551928, -0.084, 0.99, -0.088, 192.0, 0.0, 0.0, 0.0, 0.0, 0.0, 0.0, 0.0, 0.0, 0.0, 1.6961087122749984E9, 0.0, 2023-09-30 16:18:32.274
148.0, 153510.75273880397, 154382.20255162747, -159614.54476291477, -160051.49901527155, 154505.09244264275, -169630.62967427133, 66870.40679102026, 79737.5237628846, -0.084, 0.99, -0.088, 192.0, 0.0, 0.0, 0.0, 0.0, 0.0, 0.0, 0.0, 0.0, 0.0, 1.6961087122750132E9, 0.0, 2023-09-30 16:18:32.275
145.0, 153259.00504100384, 154378.22394111444, -159590.9189690255, -160014.37276773129, 154502.36552981922, -169622.94067417868, 67077.20513072076, 79586.73889478909, -0.084, 0.99, -0.088, 192.0, 0.0, 0.0, 0.0, 0.0, 0.0, 0.0, 0.0, 0.0, 0.0, 1.696108712275028E9, 0.0, 2023-09-30 16:18:32.275
146.0, 153697.45686023915, 154386.80701098527, -159585.75571605633, -160234.80567154952, 154507.68524499956, -169662.97264849814, 66865.69057294018, 79531.66419645121, -0.084, 0.99, -0.088, 192.0, 0.0, 0.0, 0.0, 0.0, 0.0, 0.0, 0.0, 0.0, 0.0, 1.6961087122750428E9, 0.0, 2023-09-30 16:18:32.275
149.0, 153162.49020844582, 154376.189932369, -159597.57978887318, -160032.20945980662, 154500.93501817406, -169619.31969157694, 67018.39769105884, 79573.50666207155, -0.084, 0.99, -0.088, 192.0, 0.0, 0.0, 0.0, 0.0, 0.0, 0.0, 0.0, 0.0, 0.0, 1.6961087122750585E9, 0.0, 2023-09-30 16:18:32.275
150.0, 153515.71482607303, 154383.72247025045, -159584.72753581137, -160207.87181948088, 154505.49477404295, -169655.50716585008, 66862.6283839498, 79488.68179186367, -0.084, 0.99, -0.088, 192.0, 0.0, 0.0, 0.0, 0.0, 0.0, 0.0, 0.0, 0.0, 0.0, 1.6961087122750745E9, 0.0, 2023-09-30 16:18:32.275
151.0, 153905.05986274005, 154387.678729019, -159599.88201855207, -160164.3976765153, 154508.06522465532, -169664.8054915435, 66691.30226269987, 79661.93016313674, -0.084, 0.99, -0.088, 192.0, 0.0, 0.0, 0.0, 0.0, 0.0, 0.0, 0.0, 0.0, 0.0, 1.6961087122750893E9, 0.0, 2023-09-30 16:18:32.275
152.0, 153559.25602427198, 154381.84492371618, -159612.28723672478, -160050.1355588598, 154504.39953856464, -169633.91538070625, 66802.41278438721, 79750.55482990204, -0.08, 0.986, -0.088, 192.0, 253.0, 128.0, 30.0, 208.0, 253.0, 64.0, 0.0, 0.0, 0.0, 1.6961087122751064E9, 0.0, 2023-09-30 16:18:32.275
153.0, 153185.73602267934, 154371.7866387113, -159594.11526848262, -160014.6633404092, 154496.464669283, -169614.17879035222, 66979.88563536234, 79609.24710145559, -0.08, 0.986, -0.088, 192.0, 0.0, 0.0, 0.0, 0.0, 0.0, 0.0, 0.0, 0.0, 0.0, 1.6961087122751212E9, 0.0, 2023-09-30 16:18:32.275
154.0, 153398.03289151585, 154377.77690622534, -159577.06088746322, -160158.31800202347, 154500.26446584042, -169644.3983488558, 66884.98012840512, 79488.14534999673, -0.08, 0.986, -0.088, 192.0, 0.0, 0.0, 0.0, 0.0, 0.0, 0.0, 0.0, 0.0, 0.0, 1.696108712275136E9, 0.0, 2023-09-30 16:18:32.275
155.0, 153910.51368838712, 154388.50574356387, -159596.35044292815, -160202.0156624336, 154508.69107350006, -169670.01344800155, 66673.51027411345, 79616.73493584812, -0.08, 0.986, -0.088, 192.0, 0.0, 0.0, 0.0, 0.0, 0.0, 0.0, 0.0, 0.0, 0.0, 1.6961087122751513E9, 0.0, 2023-09-30 16:18:32.275
156.0, 153659.03421152045, 154385.46590631796, -159615.95292281546, -160061.780817721, 154507.52878278837, -169642.3419883659, 66751.4508070291, 79740.2730274526, -0.08, 0.986, -0.088, 192.0, 0.0, 0.0, 0.0, 0.0, 0.0, 0.0, 0.0, 0.0, 0.0, 1.696108712275166E9, 0.0, 2023-09-30 16:18:32.275
157.0, 153253.43945663446, 154378.20158936997, -159603.45829766494, -160023.20170679115, 154502.58904726375, -169621.59956951137, 66942.58057386643, 79618.65718587127, -0.08, 0.986, -0.088, 192.0, 0.0, 0.0, 0.0, 0.0, 0.0, 0.0, 0.0, 0.0, 0.0, 1.6961087122751808E9, 0.0, 2023-09-30 16:18:32.275
158.0, 153330.8435476832, 154378.5815690257, -159583.78876254425, -160115.13443173582, 154501.56086701882, -169639.70448252017, 66921.16760267825, 79483.33972493884, -0.08, 0.986, -0.088, 192.0, 0.0, 0.0, 0.0, 0.0, 0.0, 0.0, 0.0, 0.0, 0.0, 1.6961087122751954E9, 0.0, 2023-09-30 16:18:32.275
159.0, 153919.6779036138, 154384.46007781746, -159587.23093119037, -160229.59771509146, 154504.44424205355, -169668.2923636785, 66692.26338771146, 79583.22967090961, -0.08, 0.986, -0.088, 192.0, 0.0, 0.0, 0.0, 0.0, 0.0, 0.0, 0.0, 0.0, 0.0, 1.6961087122752104E9, 0.0, 2023-09-30 16:18:32.275
160.0, 153766.68021281724, 154380.10148764867, -159609.2697512233, -160059.4785880421, 154501.51616352992, -169641.80554649897, 66728.49556547351, 79753.95229505925, -0.08, 0.986, -0.088, 192.0, 0.0, 0.0, 0.0, 0.0, 0.0, 0.0, 0.0, 0.0, 0.0, 1.6961087122752247E9, 0.0, 2023-09-30 16:18:32.275
161.0, 153344.67927750104, 154371.29490033328, -159598.9208935405, -160020.02775907848, 154495.32473031577, -169616.45866828665, 66920.63116081133, 79667.4063405283, -0.08, 0.986, -0.088, 192.0, 0.0, 0.0, 0.0, 0.0, 0.0, 0.0, 0.0, 0.0, 0.0, 1.696108712275239E9, 0.0, 2023-09-30 16:18:32.275
162.0, 153267.94573878596, 154369.26089158785, -159572.9705182279, -160052.6389542388, 154492.79898319233, -169626.18167712472, 66954.67286761675, 79505.2667862495, -0.076, 0.986, -0.08, 192.0, 253.0, 160.0, 30.0, 208.0, 253.0, 128.0, 0.0, 0.0, 0.0, 1.696108712559084E9, 0.0, 2023-09-30 16:18:32.559
163.0, 153854.23199584868, 154379.185066126, -159576.63620431855, -160236.7279215727, 154499.30334082883, -169664.87254677684, 66719.30899850238, 79546.30458906945, -0.076, 0.986, -0.08, 192.0, 0.0, 0.0, 0.0, 0.0, 0.0, 0.0, 0.0, 0.0, 0.0, 1.696108712559136E9, 0.0, 2023-09-30 16:18:32.559
164.0, 153834.6071642169, 154377.4863335474, -159607.03457677778, -160069.46981781363, 154498.47632628397, -169645.87356398985, 66710.18948676462, 79734.10394598293, -0.076, 0.986, -0.08, 192.0, 0.0, 0.0, 0.0, 0.0, 0.0, 0.0, 0.0, 0.0, 0.0, 1.6961087125591505E9, 0.0, 2023-09-30 16:18:32.559
165.0, 153415.80252835783, 154369.39500205457, -159600.75373658584, -160034.48933774108, 154492.79898319233, -169617.93388342072, 66894.23375060961, 79684.30425933651, -0.076, 0.986, -0.08, 192.0, 0.0, 0.0, 0.0, 0.0, 0.0, 0.0, 0.0, 0.0, 0.0, 1.6961087125591624E9, 0.0, 2023-09-30 16:18:32.559
166.0, 153229.411331345, 154360.94604265047, -159566.1085326801, -160024.274590525, 154484.7747069329, -169614.3352525634, 66986.18882729874, 79509.17834152917, -0.076, 0.986, -0.08, 192.0, 0.0, 0.0, 0.0, 0.0, 0.0, 0.0, 0.0, 0.0, 0.0, 1.6961087125591753E9, 0.0, 2023-09-30 16:18:32.559
167.0, 153774.6374338433, 154372.2336736004, -159559.671230277, -160237.39847390636, 154492.64252098114, -169657.4517676177, 66763.5654525239, 79487.92183255218, -0.076, 0.986, -0.08, 192.0, 0.0, 0.0, 0.0, 0.0, 0.0, 0.0, 0.0, 0.0, 0.0, 1.696108712559204E9, 0.0, 2023-09-30 16:18:32.559
168.0, 153910.2231157092, 154377.30751959176, -159601.31253019723, -160095.5766553374, 154497.85047743923, -169652.78025302652, 66696.08553601331, 79680.14683486782, -0.076, 0.986, -0.08, 192.0, 0.0, 0.0, 0.0, 0.0, 0.0, 0.0, 0.0, 0.0, 0.0, 1.6961087125592182E9, 0.0, 2023-09-30 16:18:32.559
169.0, 153500.985026477, 154371.25019684437, -159600.6196261191, -160035.20459356363, 154494.20714309302, -169624.72881373513, 66860.25909903755, 79678.4033988003, -0.076, 0.986, -0.08, 192.0, 0.0, 0.0, 0.0, 0.0, 0.0, 0.0, 0.0, 0.0, 0.0, 1.696108712559231E9, 0.0, 2023-09-30 16:18:32.559
170.0, 153215.2626771048, 154362.53301650682, -159575.74213454034, -160004.09096528185, 154486.6746052116, -169615.63165374182, 66992.3132052795, 79513.33576599786, -0.076, 0.986, -0.08, 192.0, 0.0, 0.0, 0.0, 0.0, 0.0, 0.0, 0.0, 0.0, 0.0, 1.6961087125592444E9, 0.0, 2023-09-30 16:18:32.559
171.0, 153666.65615637973, 154369.95379566596, -159565.169759413, -160214.8679154954, 154490.7649744469, -169655.1942414277, 66805.85495303333, 79465.72655030806, -0.076, 0.986, -0.08, 192.0, 0.0, 0.0, 0.0, 0.0, 0.0, 0.0, 0.0, 0.0, 0.0, 1.69610871255926E9, 0.0, 2023-09-30 16:18:32.559
172.0, 153953.40668599686, 154375.47467654644, -159590.04725099175, -160127.20437374167, 154495.6153029937, -169660.0445699745, 66682.02628875093, 79659.73969218013, -0.076, 0.986, -0.08, 192.0, 0.0, 0.0, 0.0, 0.0, 0.0, 0.0, 0.0, 0.0, 0.0, 1.696108712559272E9, 0.0, 2023-09-30 16:18:32.559
173.0, 153566.22976854202, 154369.12678112113, -159596.46220165043, -160035.9645528751, 154491.5696372473, -169630.16028763776, 66822.68581660818, 79713.54034108405, -0.08, 0.978, -0.084, 192.0, 253.0, 128.0, 30.0, 144.0, 253.0, 96.0, 0.0, 0.0, 0.0, 1.6961087125592847E9, 0.0, 2023-09-30 16:18:32.559
174.0, 153206.76901421178, 154362.13068510662, -159582.98409974386, -159997.94423555664, 154486.3616807892, -169617.30803457595, 66992.69318493524, 79567.91872595773, -0.08, 0.978, -0.084, 192.0, 0.0, 0.0, 0.0, 0.0, 0.0, 0.0, 0.0, 0.0, 0.0, 1.6961087125592997E9, 0.0, 2023-09-30 16:18:32.559
175.0, 153525.4825384, 154367.83037994272, -159565.95207046892, -160172.64547021932, 154489.4238697796, -169651.21563091467, 66862.36016301635, 79489.24058547504, -0.08, 0.978, -0.084, 192.0, 0.0, 0.0, 0.0, 0.0, 0.0, 0.0, 0.0, 0.0, 0.0, 1.696108712559318E9, 0.0, 2023-09-30 16:18:32.559
176.0, 153938.76629337863, 154370.82551369973, -159580.45835262042, -160152.3500862539, 154490.83202968026, -169661.8997647643, 66691.81635282235, 79667.33928529493, -0.08, 0.978, -0.084, 192.0, 0.0, 0.0, 0.0, 0.0, 0.0, 0.0, 0.0, 0.0, 0.0, 1.696108712559333E9, 0.0, 2023-09-30 16:18:32.559
177.0, 153603.44542306013, 154362.66712697354, -159594.7187655829, -160041.75365468903, 154484.8194104218, -169628.41685157025, 66807.71014782312, 79775.74524590316, -0.08, 0.978, -0.084, 192.0, 0.0, 0.0, 0.0, 0.0, 0.0, 0.0, 0.0, 0.0, 0.0, 1.6961087125593653E9, 0.0, 2023-09-30 16:18:32.559
178.0, 153209.94296192445, 154355.3804582811, -159580.74892529834, -159989.45057266363, 154479.90202664162, -169610.7366217061, 66995.82242915899, 79640.07015705945, -0.08, 0.978, -0.084, 192.0, 0.0, 0.0, 0.0, 0.0, 0.0, 0.0, 0.0, 0.0, 0.0, 1.6961087125593827E9, 0.0, 2023-09-30 16:18:32.559
179.0, 153382.38667039713, 154361.79540893977, -159564.70037277942, -160118.6436556153, 154484.30532029932, -169640.2409243871, 66921.36876837835, 79511.54762644145, -0.08, 0.978, -0.084, 192.0, 0.0, 0.0, 0.0, 0.0, 0.0, 0.0, 0.0, 0.0, 0.0, 1.6961087125594168E9, 0.0, 2023-09-30 16:18:32.559
180.0, 153903.0258539946, 154368.61269099865, -159571.74117228284, -160183.48606628014, 154488.70861395702, -169664.2019944432, 66708.82603035284, 79631.77765986654, -0.08, 0.978, -0.084, 192.0, 0.0, 0.0, 0.0, 0.0, 0.0, 0.0, 0.0, 0.0, 0.0, 1.6961087125594325E9, 0.0, 2023-09-30 16:18:32.559
181.0, 153652.84277830634, 154364.29880431877, -159596.73042258387, -160043.16181458972, 154486.18286683355, -169635.97174119615, 66778.09408641983, 79767.20687952124, -0.08, 0.978, -0.084, 192.0, 0.0, 0.0, 0.0, 0.0, 0.0, 0.0, 0.0, 0.0, 0.0, 1.6961087125594478E9, 0.0, 2023-09-30 16:18:32.559
182.0, 153230.43951158997, 154357.81679842673, -159583.87816952207, -160006.72847112757, 154482.20425632052, -169615.81046769745, 66964.5076351771, 79654.30821827748, -0.08, 0.978, -0.084, 192.0, 0.0, 0.0, 0.0, 0.0, 0.0, 0.0, 0.0, 0.0, 0.0, 1.696108712559464E9, 0.0, 2023-09-30 16:18:32.559
183.0, 153254.93702351296, 154357.6379844711, -159556.98902094233, -160072.80022773746, 154480.9078551421, -169632.6860347612, 66945.24043145662, 79508.77601012898, -0.082, 0.982, -0.08600000000000001, 192.0, 253.0, 112.0, 30.0, 176.0, 253.0, 80.0, 0.0, 0.0, 0.0, 1.6961087125594893E9, 0.0, 2023-09-30 16:18:32.559
184.0, 153842.78790268756, 154367.58451075372, -159565.79560825773, -160212.20805790523, 154487.74748894543, -169667.2418316891, 66705.67443438464, 79594.65141232628, -0.082, 0.982, -0.08600000000000001, 192.0, 0.0, 0.0, 0.0, 0.0, 0.0, 0.0, 0.0, 0.0, 0.0, 1.696108712559533E9, 0.0, 2023-09-30 16:18:32.559
190.0, 153309.2964660283, 154354.0393536138, -159575.80918977372, -160011.511744441, 154477.84566615173, -169618.17975260972, 66858.26979378102, 79725.61028308992, -0.082, 0.982, -0.08600000000000001, 192.0, 0.0, 0.0, 0.0, 0.0, 0.0, 0.0, 0.0, 0.0, 0.0, 1.696108712559565E9, 0.0, 2023-09-30 16:18:32.559
186.0, 153274.38304118908, 154358.71086820494, -159584.61577708911, -160018.53019219998, 154482.94186388754, -169619.90083693276, 66911.42224209574, 79690.09336115043, -0.082, 0.982, -0.08600000000000001, 192.0, 0.0, 0.0, 0.0, 0.0, 0.0, 0.0, 0.0, 0.0, 0.0, 1.6961087125596404E9, 0.0, 2023-09-30 16:18:32.559
187.0, 153167.899330604, 154356.07336235922, -159559.4700645769, -160050.15791060423, 154480.08084059725, -169627.12045039184, 66955.14225425033, 79523.93049286968, -0.082, 0.982, -0.08600000000000001, 192.0, 0.0, 0.0, 0.0, 0.0, 0.0, 0.0, 0.0, 0.0, 0.0, 1.6961087125596874E9, 0.0, 2023-09-30 16:18:32.559
188.0, 153748.26237538605, 154365.10346711916, -159556.94431745342, -160229.32949415798, 154485.55701798882, -169665.52074736604, 66714.72689088904, 79553.25598159504, -0.082, 0.982, -0.08600000000000001, 192.0, 0.0, 0.0, 0.0, 0.0, 0.0, 0.0, 0.0, 0.0, 0.0, 1.696108712559726E9, 0.0, 2023-09-30 16:18:32.559
191.0, 153083.61090226306, 154347.5796994662, -159557.72662850938, -160002.43693619216, 154472.07891608228, -169614.89404617477, 66960.03728628604, 79568.92455445821, -0.082, 0.982, -0.08600000000000001, 192.0, 0.0, 0.0, 0.0, 0.0, 0.0, 0.0, 0.0, 0.0, 0.0, 1.6961087125597632E9, 0.0, 2023-09-30 16:18:32.559
192.0, 153604.85358296082, 154357.68268796, -159547.62364001558, -160206.50836306912, 154478.53857022984, -169656.2447734171, 66745.52759474845, 79561.83905146588, -0.082, 0.982, -0.08600000000000001, 192.0, 0.0, 0.0, 0.0, 0.0, 0.0, 0.0, 0.0, 0.0, 0.0, 1.6961087125598106E9, 0.0, 2023-09-30 16:18:32.559
193.0, 153749.60348005337, 154362.15303685106, -159582.78293404376, -160085.1830941657, 154483.03127086535, -169651.93088673722, 66665.82127402083, 79771.20784177874, -0.082, 0.978, -0.082, 192.0, 253.0, 112.0, 30.0, 144.0, 253.0, 112.0, 0.0, 0.0, 0.0, 1.696108712559841E9, 0.0, 2023-09-30 16:18:32.559
194.0, 153331.24587908338, 154354.55344373625, -159583.34172765515, -160031.7177214286, 154477.93507312954, -169621.10783113335, 66826.48561316557, 79791.99496412218, -0.082, 0.978, -0.082, 192.0, 0.0, 0.0, 0.0, 0.0, 0.0, 0.0, 0.0, 0.0, 0.0, 1.696108712559868E9, 0.0, 2023-09-30 16:18:32.559
195.0, 153032.112483038, 154346.6409261991, -159559.98415469934, -159987.14834298473, 154471.4530672375, -169610.66956647273, 66969.40266721281, 79641.67948266024, -0.082, 0.978, -0.082, 192.0, 0.0, 0.0, 0.0, 0.0, 0.0, 0.0, 0.0, 0.0, 0.0, 1.696108712559899E9, 0.0, 2023-09-30 16:18:32.559
196.0, 153465.33399407077, 154352.65354545755, -159545.67903824797, -160183.4637145357, 154474.00116610542, -169646.6335233013, 66796.51192385101, 79598.76413330605, -0.082, 0.978, -0.082, 192.0, 0.0, 0.0, 0.0, 0.0, 0.0, 0.0, 0.0, 0.0, 0.0, 1.6961087125599327E9, 0.0, 2023-09-30 16:18:32.559
197.0, 153791.73651835162, 154353.99465012486, -159564.3650966126, -160104.27148393053, 154474.33644227224, -169647.86286924637, 66664.10018969777, 79804.24372008369, -0.082, 0.978, -0.082, 192.0, 0.0, 0.0, 0.0, 0.0, 0.0, 0.0, 0.0, 0.0, 0.0, 1.696108712559962E9, 0.0, 2023-09-30 16:18:32.559
198.0, 153418.97647607047, 154346.30565003224, -159574.15516068402, -160016.04914856545, 154468.8602648807, -169615.13991536378, 66799.84233377485, 79872.64005811693, -0.082, 0.978, -0.082, 192.0, 0.0, 0.0, 0.0, 0.0, 0.0, 0.0, 0.0, 0.0, 0.0, 1.696108712559997E9, 0.0, 2023-09-30 16:18:32.559
199.0, 153068.56817824463, 154340.27067902932, -159557.27959362027, -159978.49821788052, 154464.76989564538, -169602.3323657909, 66966.22871950016, 79712.80273351702, -0.082, 0.978, -0.082, 192.0, 0.0, 0.0, 0.0, 0.0, 0.0, 0.0, 0.0, 0.0, 0.0, 1.6961087125600252E9, 0.0, 2023-09-30 16:18:32.560
200.0, 153381.1573244521, 154344.51751047582, -159537.54300326624, -160149.4443594747, 154466.24511077942, -169633.96008419516, 66841.77420637301, 79607.32485143244, -0.082, 0.978, -0.082, 192.0, 0.0, 0.0, 0.0, 0.0, 0.0, 0.0, 0.0, 0.0, 0.0, 1.6961087125600524E9, 0.0, 2023-09-30 16:18:32.560
201.0, 153856.1765976163, 154352.81000766874, -159558.5089395653, -160144.21405127217, 154472.72711667148, -169652.22145941516, 66660.1886344181, 79764.23409750868, -0.082, 0.978, -0.082, 192.0, 0.0, 0.0, 0.0, 0.0, 0.0, 0.0, 0.0, 0.0, 0.0, 1.6961087125600984E9, 0.0, 2023-09-30 16:18:32.560
202.0, 153568.1967220541, 154346.14918782105, -159572.54583508323, -160009.92477058468, 154468.1003055692, -169620.50433403306, 66766.47117930307, 79872.12596799445, -0.082, 0.978, -0.082, 192.0, 0.0, 0.0, 0.0, 0.0, 0.0, 0.0, 0.0, 0.0, 0.0, 1.696108712560138E9, 0.0, 2023-09-30 16:18:32.560
203.0, 153200.37641529756, 154338.86251912863, -159559.73828551034, -159976.93359576864, 154463.0488113223, -169602.06414485743, 66956.08102751744, 79742.84347806495, -0.078, 0.98, -0.08, 192.0, 253.0, 144.0, 30.0, 160.0, 253.0, 128.0, 0.0, 0.0, 0.0, 1.696108712560171E9, 0.0, 2023-09-30 16:18:32.560
204.0, 153359.76670500837, 154340.71771391842, -159540.29226783424, -160101.72338506262, 154462.98175608896, -169626.09227014688, 66897.63121576681, 79622.59109289541, -0.078, 0.98, -0.08, 192.0, 0.0, 0.0, 0.0, 0.0, 0.0, 0.0, 0.0, 0.0, 0.0, 1.6961087125602095E9, 0.0, 2023-09-30 16:18:32.560
205.0, 153914.35818843346, 154348.56317622223, -159547.3107155932, -160181.29559532352, 154468.18971254703, -169653.42845361572, 66678.02532649343, 79752.45472818075, -0.078, 0.98, -0.08, 192.0, 0.0, 0.0, 0.0, 0.0, 0.0, 0.0, 0.0, 0.0, 0.0, 1.696108712560249E9, 0.0, 2023-09-30 16:18:32.560
206.0, 153716.7240639596, 154342.01411509683, -159562.0628669337, -160012.60697991934, 154463.42879097807, -169623.87944744583, 66737.48096674454, 79909.27456727918, -0.078, 0.98, -0.08, 192.0, 0.0, 0.0, 0.0, 0.0, 0.0, 0.0, 0.0, 0.0, 0.0, 1.6961087125602913E9, 0.0, 2023-09-30 16:18:32.560
207.0, 153301.674521169, 154333.49810045937, -159553.07746566267, -159961.8014647724, 154457.3044129973, -169601.4829995016, 66926.46496611416, 79806.32243231803, -0.078, 0.98, -0.08, 192.0, 0.0, 0.0, 0.0, 0.0, 0.0, 0.0, 0.0, 0.0, 0.0, 1.696108712560326E9, 0.0, 2023-09-30 16:18:32.560
208.0, 153305.9884078489, 154335.0850743157, -159539.398198056, -160045.4193407797, 154457.9526135865, -169619.36439506584, 66928.7448440486, 79656.43163400074, -0.078, 0.98, -0.08, 192.0, 0.0, 0.0, 0.0, 0.0, 0.0, 0.0, 0.0, 0.0, 0.0, 1.6961087125603688E9, 0.0, 2023-09-30 16:18:32.560
209.0, 153910.08900524248, 154346.79738841025, -159544.38263706956, -160200.09341241044, 154466.64744217962, -169658.055264718, 66694.40915517916, 79728.22543719118, -0.078, 0.98, -0.08, 192.0, 0.0, 0.0, 0.0, 0.0, 0.0, 0.0, 0.0, 0.0, 0.0, 1.696108712560402E9, 0.0, 2023-09-30 16:18:32.560
