%OpenBCI Raw EXG Data
%Number of channels = 8
%Sample Rate = 250 Hz
%Board = OpenBCI_GUI$BoardCytonSerial
Sample Index, EXG Channel 0, EXG Channel 1, EXG Channel 2, EXG Channel 3, EXG Channel 4, EXG Channel 5, EXG Channel 6, EXG Channel 7, Accel Channel 0, Accel Channel 1, Accel Channel 2, Other, Other, Other, Other, Other, Other, Other, Analog Channel 0, Analog Channel 1, Analog Channel 2, Timestamp, Other, Timestamp (Formatted)
118.0, 40427.399030613786, 18750.43138866799, -187500.02235174447, -187500.02235174447, 29444.35530237619, -187500.02235174447, 10908.947695368255, -103992.60866553888, 0.0, 0.0, 0.0, 192.0, 0.0, 0.0, 0.0, 0.0, 0.0, 0.0, 0.0, 0.0, 0.0, 1.6961093601943097E9, 0.0, 2023-09-30 16:29:20.194
119.0, 40490.028618577555, 18749.60437412314, -187500.02235174447, -187500.02235174447, 29441.516630830367, -187500.02235174447, 10886.640654401857, -104100.3664255579, 0.0, 0.0, 0.0, 192.0, 0.0, 0.0, 0.0, 0.0, 0.0, 0.0, 0.0, 0.0, 0.0, 1.696109360194332E9, 0.0, 2023-09-30 16:29:20.194
120.0, 40467.810984588985, 18745.58106012119, -187500.02235174447, -187500.02235174447, 29464.98596250844, -187500.02235174447, 10965.385850117904, -103939.6350311798, -0.18, 0.9560000000000001, 0.0, 192.0, 250.0, 96.0, 29.0, 224.0, 0.0, 0.0, 0.0, 0.0, 0.0, 1.696109360194344E9, 0.0, 2023-09-30 16:29:20.194
121.0, 40417.787780498, 18735.589830349665, -187500.02235174447, -187500.02235174447, 29491.40572445461, -187500.02235174447, 11015.721978631256, -103800.13779403422, -0.18, 0.9560000000000001, 0.0, 192.0, 0.0, 0.0, 0.0, 0.0, 0.0, 0.0, 0.0, 0.0, 0.0, 1.6961093601943555E9, 0.0, 2023-09-30 16:29:20.194
122.0, 40408.06477165995, 18741.021304252303, -187500.02235174447, -187500.02235174447, 29449.07152045626, -187500.02235174447, 10930.137149111886, -103987.51246780307, -0.18, 0.9560000000000001, 0.0, 192.0, 0.0, 0.0, 0.0, 0.0, 0.0, 0.0, 0.0, 0.0, 0.0, 1.6961093601943667E9, 0.0, 2023-09-30 16:29:20.194
123.0, 40476.05877829299, 18745.80457756574, -187500.02235174447, -187500.02235174447, 29441.36016861918, -187500.02235174447, 10891.625093415392, -104126.85324273744, -0.18, 0.9560000000000001, 0.0, 192.0, 0.0, 0.0, 0.0, 0.0, 0.0, 0.0, 0.0, 0.0, 0.0, 1.696109360194378E9, 0.0, 2023-09-30 16:29:20.194
124.0, 40472.88483058033, 18739.65784784053, -187500.02235174447, -187500.02235174447, 29497.50775069091, -187500.02235174447, 10969.163294930851, -103977.00714790907, -0.18, 0.9560000000000001, 0.0, 192.0, 0.0, 0.0, 0.0, 0.0, 0.0, 0.0, 0.0, 0.0, 0.0, 1.6961093601943896E9, 0.0, 2023-09-30 16:29:20.194
125.0, 40437.256149918576, 18751.57132763521, -187500.02235174447, -187500.02235174447, 29518.071355589793, -187500.02235174447, 11030.541185205126, -103805.9045441037, -0.18, 0.9560000000000001, 0.0, 192.0, 0.0, 0.0, 0.0, 0.0, 0.0, 0.0, 0.0, 0.0, 0.0, 1.6961093601944013E9, 0.0, 2023-09-30 16:29:20.194
126.0, 40395.77131220953, 18768.290432487778, -187500.02235174447, -187500.02235174447, 29445.227020409948, -187500.02235174447, 10947.862082464944, -103950.63208945181, -0.18, 0.9560000000000001, 0.0, 192.0, 0.0, 0.0, 0.0, 0.0, 0.0, 0.0, 0.0, 0.0, 0.0, 1.696109360194412E9, 0.0, 2023-09-30 16:29:20.194
127.0, 40433.29989114999, 18774.213644768435, -187500.02235174447, -187500.02235174447, 29423.67993875503, -187500.02235174447, 10894.642578916857, -104127.97082996022, -0.18, 0.9560000000000001, 0.0, 192.0, 0.0, 0.0, 0.0, 0.0, 0.0, 0.0, 0.0, 0.0, 0.0, 1.6961093601944227E9, 0.0, 2023-09-30 16:29:20.194
128.0, 40430.48357134862, 18751.28075495729, -187500.02235174447, -187500.02235174447, 29460.4038548951, -187500.02235174447, 10960.759039015657, -104014.66983731627, -0.18, 0.9560000000000001, 0.0, 192.0, 0.0, 0.0, 0.0, 0.0, 0.0, 0.0, 0.0, 0.0, 0.0, 1.6961093601944337E9, 0.0, 2023-09-30 16:29:20.194
129.0, 40404.30967859145, 18743.055312997738, -187500.02235174447, -187500.02235174447, 29518.630149201173, -187500.02235174447, 11041.717057432777, -103807.58092493784, -0.18, 0.9560000000000001, 0.0, 192.0, 0.0, 0.0, 0.0, 0.0, 0.0, 0.0, 0.0, 0.0, 0.0, 1.6961093601944442E9, 0.0, 2023-09-30 16:29:20.194
130.0, 40360.29909375896, 18747.548013633255, -187500.02235174447, -187500.02235174447, 29480.207500482502, -187500.02235174447, 10976.852295023476, -103893.88101027979, -0.182, 0.98, -0.004, 192.0, 250.0, 80.0, 30.0, 160.0, 255.0, 224.0, 0.0, 0.0, 0.0, 1.6961093601944554E9, 0.0, 2023-09-30 16:29:20.194
131.0, 40399.32523957792, 18759.685010872487, -187500.02235174447, -187500.02235174447, 29408.167828103047, -187500.02235174447, 10888.67466314729, -104125.53448981458, -0.182, 0.98, -0.004, 192.0, 0.0, 0.0, 0.0, 0.0, 0.0, 0.0, 0.0, 0.0, 0.0, 1.696109360194467E9, 0.0, 2023-09-30 16:29:20.194
132.0, 40464.726443854146, 18779.600415182165, -187500.02235174447, -187500.02235174447, 29447.73041578894, -187500.02235174447, 10925.823262432012, -104078.93110262527, -0.182, 0.98, -0.004, 192.0, 0.0, 0.0, 0.0, 0.0, 0.0, 0.0, 0.0, 0.0, 0.0, 1.696109360194478E9, 0.0, 2023-09-30 16:29:20.194
133.0, 40432.04819346049, 18773.565444179232, -187500.02235174447, -187500.02235174447, 29490.534006420854, -187500.02235174447, 11000.835716824022, -103892.02581549, -0.182, 0.98, -0.004, 192.0, 0.0, 0.0, 0.0, 0.0, 0.0, 0.0, 0.0, 0.0, 0.0, 1.6961093601944895E9, 0.0, 2023-09-30 16:29:20.194
134.0, 40408.40004782678, 18766.65875514254, -187500.02235174447, -187500.02235174447, 29464.69538983052, -187500.02235174447, 10979.758021802667, -103903.55931562893, -0.182, 0.98, -0.004, 192.0, 0.0, 0.0, 0.0, 0.0, 0.0, 0.0, 0.0, 0.0, 0.0, 1.6961093601945004E9, 0.0, 2023-09-30 16:29:20.194
135.0, 40408.601213526876, 18769.20685401045, -187500.02235174447, -187500.02235174447, 29366.638286905087, -187500.02235174447, 10865.138276235852, -104174.08247877151, -0.182, 0.98, -0.004, 192.0, 0.0, 0.0, 0.0, 0.0, 0.0, 0.0, 0.0, 0.0, 0.0, 1.696109360194512E9, 0.0, 2023-09-30 16:29:20.194
136.0, 40455.27165594955, 18771.017345311328, -187500.02235174447, -187500.02235174447, 29420.01425266436, -187500.02235174447, 10909.126509323896, -104143.2817749121, -0.182, 0.98, -0.004, 192.0, 0.0, 0.0, 0.0, 0.0, 0.0, 0.0, 0.0, 0.0, 0.0, 1.6961093601945236E9, 0.0, 2023-09-30 16:29:20.194
137.0, 40446.73328956763, 18774.32540349071, -187500.02235174447, -187500.02235174447, 29496.16664602359, -187500.02235174447, 10995.538353388114, -103947.68165918371, -0.182, 0.98, -0.004, 192.0, 0.0, 0.0, 0.0, 0.0, 0.0, 0.0, 0.0, 0.0, 0.0, 1.6961093601945364E9, 0.0, 2023-09-30 16:29:20.194
138.0, 40387.411759783245, 18771.91141508954, -187500.02235174447, -187500.02235174447, 29486.421285441076, -187500.02235174447, 11005.306065715084, -103893.70219632414, -0.182, 0.98, -0.004, 192.0, 0.0, 0.0, 0.0, 0.0, 0.0, 0.0, 0.0, 0.0, 0.0, 1.696109360194547E9, 0.0, 2023-09-30 16:29:20.194
139.0, 40357.14749779076, 18773.47603720141, -187500.02235174447, -187500.02235174447, 29407.76549670285, -187500.02235174447, 10889.166401525308, -104149.16028370385, -0.182, 0.98, -0.004, 192.0, 0.0, 0.0, 0.0, 0.0, 0.0, 0.0, 0.0, 0.0, 0.0, 1.696109360194565E9, 0.0, 2023-09-30 16:29:20.194
140.0, 40442.084126720925, 18803.58383698271, -187500.02235174447, -187500.02235174447, 29397.796618675784, -187500.02235174447, 10865.697069847236, -104241.74120923772, -0.192, 0.988, -0.004, 192.0, 250.0, 0.0, 30.0, 224.0, 255.0, 224.0, 0.0, 0.0, 0.0, 1.6961093601945896E9, 0.0, 2023-09-30 16:29:20.194
141.0, 40432.13760043831, 18790.262197287346, -187500.02235174447, -187500.02235174447, 29438.00740695088, -187500.02235174447, 10949.605518532459, -104085.34605328394, -0.192, 0.988, -0.004, 192.0, 0.0, 0.0, 0.0, 0.0, 0.0, 0.0, 0.0, 0.0, 0.0, 1.6961093601946008E9, 0.0, 2023-09-30 16:29:20.194
142.0, 40417.050172930976, 18781.679127416508, -187500.02235174447, -187500.02235174447, 29479.335782448743, -187500.02235174447, 11008.770586105657, -103955.70593544317, -0.192, 0.988, -0.004, 192.0, 0.0, 0.0, 0.0, 0.0, 0.0, 0.0, 0.0, 0.0, 0.0, 1.6961093601946118E9, 0.0, 2023-09-30 16:29:20.194
143.0, 40391.323315062924, 18780.114505304635, -187500.02235174447, -187500.02235174447, 29420.126011386637, -187500.02235174447, 10914.088596592976, -104170.0368130251, -0.192, 0.988, -0.004, 192.0, 0.0, 0.0, 0.0, 0.0, 0.0, 0.0, 0.0, 0.0, 0.0, 1.6961093601946228E9, 0.0, 2023-09-30 16:29:20.194
144.0, 40436.16091444027, 18784.942482106984, -187500.02235174447, -187500.02235174447, 29417.712022985463, -187500.02235174447, 10885.791288112556, -104282.2202184463, -0.192, 0.988, -0.004, 192.0, 0.0, 0.0, 0.0, 0.0, 0.0, 0.0, 0.0, 0.0, 0.0, 1.6961093601946335E9, 0.0, 2023-09-30 16:29:20.194
145.0, 40419.28534737651, 18782.863769872638, -187500.02235174447, -187500.02235174447, 29448.982113478436, -187500.02235174447, 10952.891224967389, -104142.61122257845, -0.192, 0.988, -0.004, 192.0, 0.0, 0.0, 0.0, 0.0, 0.0, 0.0, 0.0, 0.0, 0.0, 1.6961093601946447E9, 0.0, 2023-09-30 16:29:20.194
146.0, 40391.591535996384, 18793.771421166828, -187500.02235174447, -187500.02235174447, 29458.503956616398, -187500.02235174447, 10990.263341696662, -104030.33841017944, -0.192, 0.988, -0.004, 192.0, 0.0, 0.0, 0.0, 0.0, 0.0, 0.0, 0.0, 0.0, 0.0, 1.6961093601946568E9, 0.0, 2023-09-30 16:29:20.194
147.0, 40369.84328864137, 18771.464380200432, -187500.02235174447, -187500.02235174447, 29398.936557643006, -187500.02235174447, 10904.767919155112, -104218.69656070431, -0.192, 0.988, -0.004, 192.0, 0.0, 0.0, 0.0, 0.0, 0.0, 0.0, 0.0, 0.0, 0.0, 1.6961093601946695E9, 0.0, 2023-09-30 16:29:20.194
148.0, 40399.571108766926, 18773.185464523493, -187500.02235174447, -187500.02235174447, 29389.95115637197, -187500.02235174447, 10867.664023359303, -104362.12770487402, -0.192, 0.988, -0.004, 192.0, 0.0, 0.0, 0.0, 0.0, 0.0, 0.0, 0.0, 0.0, 0.0, 1.6961093601946805E9, 0.0, 2023-09-30 16:29:20.194
149.0, 40398.92290817772, 18785.300110018266, -187500.02235174447, -187500.02235174447, 29427.16681089006, -187500.02235174447, 10932.662896235335, -104246.72564825126, -0.192, 0.988, -0.004, 192.0, 0.0, 0.0, 0.0, 0.0, 0.0, 0.0, 0.0, 0.0, 0.0, 1.6961093601946924E9, 0.0, 2023-09-30 16:29:20.194
150.0, 40368.882163629794, 18788.67522343102, -187500.02235174447, -187500.02235174447, 29459.17450895006, -187500.02235174447, 11015.297295486605, -104066.4141257303, -0.192, 0.988, -0.004, 192.0, 0.0, 0.0, 0.0, 0.0, 0.0, 0.0, 0.0, 0.0, 0.0, 1.696109360194703E9, 0.0, 2023-09-30 16:29:20.194
151.0, 40327.64319510975, 18775.308880246746, -187500.02235174447, -187500.02235174447, 29425.69159575601, -187500.02235174447, 10969.83384726451, -104153.51887387263, -0.184, 0.978, -0.01, 192.0, 250.0, 64.0, 30.0, 144.0, 255.0, 176.0, 0.0, 0.0, 0.0, 1.6961093601947148E9, 0.0, 2023-09-30 16:29:20.194
152.0, 40365.81997463942, 18789.70340367596, -187500.02235174447, -187500.02235174447, 29400.903511155073, -187500.02235174447, 10897.72711965169, -104345.74387618827, -0.184, 0.978, -0.01, 192.0, 0.0, 0.0, 0.0, 0.0, 0.0, 0.0, 0.0, 0.0, 0.0, 1.6961093601947258E9, 0.0, 2023-09-30 16:29:20.194
153.0, 40416.066696174945, 18799.493467747387, -187500.02235174447, -187500.02235174447, 29429.983130691428, -187500.02235174447, 10947.057419664552, -104272.38545088595, -0.184, 0.978, -0.01, 192.0, 0.0, 0.0, 0.0, 0.0, 0.0, 0.0, 0.0, 0.0, 0.0, 1.6961093601947372E9, 0.0, 2023-09-30 16:29:20.194
154.0, 40402.8344634574, 18784.71896466243, -187500.02235174447, -187500.02235174447, 29470.015105010883, -187500.02235174447, 11020.259382755683, -104089.99521613064, -0.184, 0.978, -0.01, 192.0, 0.0, 0.0, 0.0, 0.0, 0.0, 0.0, 0.0, 0.0, 0.0, 1.6961093601947482E9, 0.0, 2023-09-30 16:29:20.194
155.0, 40355.69463440116, 18782.260272772346, -187500.02235174447, -187500.02235174447, 29438.25327613989, -187500.02235174447, 10972.31489089905, -104153.34005991698, -0.184, 0.978, -0.01, 192.0, 0.0, 0.0, 0.0, 0.0, 0.0, 0.0, 0.0, 0.0, 0.0, 1.6961093601947591E9, 0.0, 2023-09-30 16:29:20.194
156.0, 40375.67709394421, 18783.936653606495, -187500.02235174447, -187500.02235174447, 29368.202909016956, -187500.02235174447, 10896.631884173381, -104351.9353094024, -0.184, 0.978, -0.01, 192.0, 0.0, 0.0, 0.0, 0.0, 0.0, 0.0, 0.0, 0.0, 0.0, 1.69610936019477E9, 0.0, 2023-09-30 16:29:20.194
157.0, 40405.11434139185, 18795.559560723254, -187500.02235174447, -187500.02235174447, 29413.085211883215, -187500.02235174447, 10937.893204437876, -104291.65265460643, -0.184, 0.978, -0.01, 192.0, 0.0, 0.0, 0.0, 0.0, 0.0, 0.0, 0.0, 0.0, 0.0, 1.6961093601947808E9, 0.0, 2023-09-30 16:29:20.194
158.0, 40379.52159399052, 18787.5352844638, -187500.02235174447, -187500.02235174447, 29459.57684035025, -187500.02235174447, 11010.93870531782, -104102.95922791472, -0.184, 0.978, -0.01, 192.0, 0.0, 0.0, 0.0, 0.0, 0.0, 0.0, 0.0, 0.0, 0.0, 1.6961093601947925E9, 0.0, 2023-09-30 16:29:20.194
159.0, 40357.72864314659, 18806.91424690655, -187500.02235174447, -187500.02235174447, 29464.181299708045, -187500.02235174447, 11006.244838982206, -104079.93693112576, -0.184, 0.978, -0.01, 192.0, 0.0, 0.0, 0.0, 0.0, 0.0, 0.0, 0.0, 0.0, 0.0, 1.6961093601948032E9, 0.0, 2023-09-30 16:29:20.194
160.0, 40350.88900934327, 18789.636348442596, -187500.02235174447, -187500.02235174447, 29410.62651999313, -187500.02235174447, 10915.49675649366, -104282.82371554658, -0.184, 0.978, -0.01, 192.0, 0.0, 0.0, 0.0, 0.0, 0.0, 0.0, 0.0, 0.0, 0.0, 1.6961093601948152E9, 0.0, 2023-09-30 16:29:20.194
161.0, 40390.29513481798, 18794.821953156228, -187500.02235174447, -187500.02235174447, 29406.37968854662, -187500.02235174447, 10921.174099585307, -104272.67602356386, -0.178, 0.966, -0.014, 192.0, 250.0, 112.0, 30.0, 48.0, 255.0, 144.0, 0.0, 0.0, 0.0, 1.6961093601948297E9, 0.0, 2023-09-30 16:29:20.194
162.0, 40403.14738787978, 18801.90745614856, -187500.02235174447, -187500.02235174447, 29461.364979906677, -187500.02235174447, 11001.729786602235, -104079.93693112576, -0.178, 0.966, -0.014, 192.0, 0.0, 0.0, 0.0, 0.0, 0.0, 0.0, 0.0, 0.0, 0.0, 1.6961093601948404E9, 0.0, 2023-09-30 16:29:20.194
163.0, 40355.47111695661, 18785.702441418463, -187500.02235174447, -187500.02235174447, 29489.617584898187, -187500.02235174447, 11033.871595128965, -103971.8438949399, -0.178, 0.966, -0.014, 192.0, 0.0, 0.0, 0.0, 0.0, 0.0, 0.0, 0.0, 0.0, 0.0, 1.6961093601948524E9, 0.0, 2023-09-30 16:29:20.194
164.0, 40322.50229388503, 18781.924996605518, -187500.02235174447, -187500.02235174447, 29417.644967752098, -187500.02235174447, 10947.079771409008, -104146.6345365804, -0.178, 0.966, -0.014, 192.0, 0.0, 0.0, 0.0, 0.0, 0.0, 0.0, 0.0, 0.0, 0.0, 1.6961093601948636E9, 0.0, 2023-09-30 16:29:20.194
165.0, 40400.24166110059, 18787.62469144162, -187500.02235174447, -187500.02235174447, 29431.905380714583, -187500.02235174447, 10949.046724921076, -104157.05044949657, -0.178, 0.966, -0.014, 192.0, 0.0, 0.0, 0.0, 0.0, 0.0, 0.0, 0.0, 0.0, 0.0, 1.6961093601948745E9, 0.0, 2023-09-30 16:29:20.194
166.0, 40408.42239957123, 18793.01146185535, -187500.02235174447, -187500.02235174447, 29520.84297190225, -187500.02235174447, 11051.194197081828, -103931.76721713154, -0.178, 0.966, -0.014, 192.0, 0.0, 0.0, 0.0, 0.0, 0.0, 0.0, 0.0, 0.0, 0.0, 1.6961093601948855E9, 0.0, 2023-09-30 16:29:20.194
167.0, 40340.920131316205, 18811.272837075336, -187500.02235174447, -187500.02235174447, 29490.735172120952, -187500.02235174447, 11051.28360405965, -103834.22420432857, -0.178, 0.966, -0.014, 192.0, 0.0, 0.0, 0.0, 0.0, 0.0, 0.0, 0.0, 0.0, 0.0, 1.6961093601948965E9, 0.0, 2023-09-30 16:29:20.194
168.0, 40314.008630992015, 18806.288398061803, -187500.02235174447, -187500.02235174447, 29407.944310658495, -187500.02235174447, 10954.947585457276, -104004.63390405582, -0.178, 0.966, -0.014, 192.0, 0.0, 0.0, 0.0, 0.0, 0.0, 0.0, 0.0, 0.0, 0.0, 1.6961093601949072E9, 0.0, 2023-09-30 16:29:20.194
169.0, 40365.663512428226, 18799.851095658672, -187500.02235174447, -187500.02235174447, 29416.460325295968, -187500.02235174447, 10947.370344086927, -104038.72031435017, -0.178, 0.966, -0.014, 192.0, 0.0, 0.0, 0.0, 0.0, 0.0, 0.0, 0.0, 0.0, 0.0, 1.6961093601949184E9, 0.0, 2023-09-30 16:29:20.194
170.0, 40364.970608350115, 18801.952159637473, -187500.02235174447, -187500.02235174447, 29473.390218423632, -187500.02235174447, 11012.145699518407, -103870.70225127962, -0.178, 0.966, -0.014, 192.0, 0.0, 0.0, 0.0, 0.0, 0.0, 0.0, 0.0, 0.0, 0.0, 1.6961093601949294E9, 0.0, 2023-09-30 16:29:20.194
171.0, 40349.05616629794, 18796.587740968196, -187500.02235174447, -187500.02235174447, 29520.12771607968, -187500.02235174447, 11049.316650547582, -103736.21180489205, -0.184, 0.968, -0.016, 192.0, 250.0, 64.0, 30.0, 64.0, 255.0, 128.0, 0.0, 0.0, 0.0, 1.69610936019494E9, 0.0, 2023-09-30 16:29:20.194
172.0, 40318.38957290525, 18783.1319908061, -187500.02235174447, -187500.02235174447, 29475.670096358073, -187500.02235174447, 10973.499533355181, -103857.98410868456, -0.184, 0.968, -0.016, 192.0, 0.0, 0.0, 0.0, 0.0, 0.0, 0.0, 0.0, 0.0, 0.0, 1.6961093601949508E9, 0.0, 2023-09-30 16:29:20.194
173.0, 40383.924887648216, 18809.90938066356, -187500.02235174447, -187500.02235174447, 29440.711968029973, -187500.02235174447, 10922.336390296983, -103981.00811016657, -0.184, 0.968, -0.016, 192.0, 0.0, 0.0, 0.0, 0.0, 0.0, 0.0, 0.0, 0.0, 0.0, 1.6961093601949618E9, 0.0, 2023-09-30 16:29:20.194
174.0, 40402.365076823844, 18807.18246784001, -187500.02235174447, -187500.02235174447, 29488.83527384225, -187500.02235174447, 10987.804649806578, -103839.16393985318, -0.184, 0.968, -0.016, 192.0, 0.0, 0.0, 0.0, 0.0, 0.0, 0.0, 0.0, 0.0, 0.0, 1.6961093601949725E9, 0.0, 2023-09-30 16:29:20.194
175.0, 40357.92980884669, 18793.749069422374, -187500.02235174447, -187500.02235174447, 29516.037346844358, -187500.02235174447, 11044.868653400976, -103661.80284760032, -0.184, 0.968, -0.016, 192.0, 0.0, 0.0, 0.0, 0.0, 0.0, 0.0, 0.0, 0.0, 0.0, 1.6961093601949832E9, 0.0, 2023-09-30 16:29:20.194
176.0, 40322.03290725147, 18778.795752381775, -187500.02235174447, -187500.02235174447, 29472.205575967502, -187500.02235174447, 10991.760908575166, -103728.72397049952, -0.184, 0.968, -0.016, 192.0, 0.0, 0.0, 0.0, 0.0, 0.0, 0.0, 0.0, 0.0, 0.0, 1.6961093601949942E9, 0.0, 2023-09-30 16:29:20.194
177.0, 40365.48469847259, 18792.743240921885, -187500.02235174447, -187500.02235174447, 29450.92671524605, -187500.02235174447, 10923.342218797472, -103892.96458875711, -0.184, 0.968, -0.016, 192.0, 0.0, 0.0, 0.0, 0.0, 0.0, 0.0, 0.0, 0.0, 0.0, 1.6961093601950052E9, 0.0, 2023-09-30 16:29:20.195
178.0, 40401.538062278996, 18790.95510136546, -187500.02235174447, -187500.02235174447, 29485.728381362962, -187500.02235174447, 10969.006832719664, -103807.46916621557, -0.184, 0.968, -0.016, 192.0, 0.0, 0.0, 0.0, 0.0, 0.0, 0.0, 0.0, 0.0, 0.0, 1.696109360195016E9, 0.0, 2023-09-30 16:29:20.195
179.0, 40349.436145953674, 18781.120333805124, -187500.02235174447, -187500.02235174447, 29497.574805924276, -187500.02235174447, 11032.195214294818, -103638.66879208908, -0.184, 0.968, -0.016, 192.0, 0.0, 0.0, 0.0, 0.0, 0.0, 0.0, 0.0, 0.0, 0.0, 1.6961093601950269E9, 0.0, 2023-09-30 16:29:20.195
180.0, 40310.566462345894, 18794.10669733366, -187500.02235174447, -187500.02235174447, 29469.50101488841, -187500.02235174447, 10986.977635261732, -103690.79306015886, -0.184, 0.968, -0.016, 192.0, 0.0, 0.0, 0.0, 0.0, 0.0, 0.0, 0.0, 0.0, 0.0, 1.6961093601950374E9, 0.0, 2023-09-30 16:29:20.195
181.0, 40364.99296009457, 18797.52651423532, -187500.02235174447, -187500.02235174447, 29470.55154687781, -187500.02235174447, 10913.507451237138, -103896.36205391432, -0.19, 0.98, -0.026000000000000002, 192.0, 250.0, 16.0, 30.0, 160.0, 255.0, 48.0, 0.0, 0.0, 0.0, 1.6961093601950483E9, 0.0, 2023-09-30 16:29:20.195
182.0, 40397.827672699415, 18807.405985284568, -187500.02235174447, -187500.02235174447, 29467.668171843074, -187500.02235174447, 10920.63765771838, -103907.60498137535, -0.19, 0.98, -0.026000000000000002, 192.0, 0.0, 0.0, 0.0, 0.0, 0.0, 0.0, 0.0, 0.0, 0.0, 1.6961093601950617E9, 0.0, 2023-09-30 16:29:20.195
183.0, 40353.07948029989, 18799.359357280657, -187500.02235174447, -187500.02235174447, 29490.109323276203, -187500.02235174447, 10976.449963623281, -103798.37200622226, -0.19, 0.98, -0.026000000000000002, 192.0, 0.0, 0.0, 0.0, 0.0, 0.0, 0.0, 0.0, 0.0, 0.0, 1.6961093601950724E9, 0.0, 2023-09-30 16:29:20.195
184.0, 40303.95034598713, 18782.2826245168, -187500.02235174447, -187500.02235174447, 29490.64576514313, -187500.02235174447, 10968.582149575013, -103815.09111107483, -0.19, 0.98, -0.026000000000000002, 192.0, 0.0, 0.0, 0.0, 0.0, 0.0, 0.0, 0.0, 0.0, 0.0, 1.6961093601950831E9, 0.0, 2023-09-30 16:29:20.195
185.0, 40306.05140996593, 18776.56057793624, -187500.02235174447, -187500.02235174447, 29422.137668387615, -187500.02235174447, 10869.25099721563, -104062.92725359528, -0.19, 0.98, -0.026000000000000002, 192.0, 0.0, 0.0, 0.0, 0.0, 0.0, 0.0, 0.0, 0.0, 0.0, 1.696109360195094E9, 0.0, 2023-09-30 16:29:20.195
186.0, 40347.558599419426, 18777.789923881286, -187500.02235174447, -187500.02235174447, 29424.618712022155, -187500.02235174447, 10878.05758453102, -104103.16039361482, -0.19, 0.98, -0.026000000000000002, 192.0, 0.0, 0.0, 0.0, 0.0, 0.0, 0.0, 0.0, 0.0, 0.0, 1.6961093601951053E9, 0.0, 2023-09-30 16:29:20.195
187.0, 40313.69570656964, 18793.436145, -187500.02235174447, -187500.02235174447, 29457.98986649393, -187500.02235174447, 10941.31302133954, -103985.97019743564, -0.19, 0.98, -0.026000000000000002, 192.0, 0.0, 0.0, 0.0, 0.0, 0.0, 0.0, 0.0, 0.0, 0.0, 1.6961093601951165E9, 0.0, 2023-09-30 16:29:20.195
188.0, 40306.43138962166, 18788.943444364482, -187500.02235174447, -187500.02235174447, 29481.682715616553, -187500.02235174447, 10958.8367889925, -103945.11120857135, -0.19, 0.98, -0.026000000000000002, 192.0, 0.0, 0.0, 0.0, 0.0, 0.0, 0.0, 0.0, 0.0, 0.0, 1.6961093601951275E9, 0.0, 2023-09-30 16:29:20.195
189.0, 40324.759820075014, 18777.924034348016, -187500.02235174447, -187500.02235174447, 29443.30477038679, -187500.02235174447, 10896.453070217738, -104112.70458849723, -0.19, 0.98, -0.026000000000000002, 192.0, 0.0, 0.0, 0.0, 0.0, 0.0, 0.0, 0.0, 0.0, 0.0, 1.6961093601951387E9, 0.0, 2023-09-30 16:29:20.195
190.0, 40404.75671348056, 18803.58383698271, -187500.02235174447, -187500.02235174447, 29452.424282124553, -187500.02235174447, 10887.892352091356, -104161.83372281, -0.19, 0.98, -0.026000000000000002, 192.0, 0.0, 0.0, 0.0, 0.0, 0.0, 0.0, 0.0, 0.0, 0.0, 1.6961093601951497E9, 0.0, 2023-09-30 16:29:20.195
191.0, 40401.113379134345, 18803.29326430479, -187500.02235174447, -187500.02235174447, 29476.206538225, -187500.02235174447, 10954.791123246088, -104012.0993867039, -0.19, 0.98, -0.026000000000000002, 192.0, 0.0, 0.0, 0.0, 0.0, 0.0, 0.0, 0.0, 0.0, 0.0, 1.696109360195161E9, 0.0, 2023-09-30 16:29:20.195
192.0, 40351.6266169103, 18802.354491037666, -187500.02235174447, -187500.02235174447, 29514.87505613268, -187500.02235174447, 11030.764702649678, -103847.97052716858, -0.188, 0.986, -0.026000000000000002, 192.0, 250.0, 32.0, 30.0, 208.0, 255.0, 48.0, 0.0, 0.0, 0.0, 1.696109360195172E9, 0.0, 2023-09-30 16:29:20.195
193.0, 40306.49844485503, 18801.01338637035, -187500.02235174447, -187500.02235174447, 29470.104511988702, -187500.02235174447, 10965.966995473742, -103977.1412583758, -0.188, 0.986, -0.026000000000000002, 192.0, 0.0, 0.0, 0.0, 0.0, 0.0, 0.0, 0.0, 0.0, 0.0, 1.696109360195183E9, 0.0, 2023-09-30 16:29:20.195
194.0, 40362.95895134914, 18827.902534950084, -187500.02235174447, -187500.02235174447, 29458.995694994413, -187500.02235174447, 10926.8290909325, -104081.32273928198, -0.188, 0.986, -0.026000000000000002, 192.0, 0.0, 0.0, 0.0, 0.0, 0.0, 0.0, 0.0, 0.0, 0.0, 1.696109360195194E9, 0.0, 2023-09-30 16:29:20.195
195.0, 40366.021140339515, 18814.44678478799, -187500.02235174447, -187500.02235174447, 29502.514541448898, -187500.02235174447, 11000.902772057387, -103926.02281880651, -0.188, 0.986, -0.026000000000000002, 192.0, 0.0, 0.0, 0.0, 0.0, 0.0, 0.0, 0.0, 0.0, 0.0, 1.6961093601952047E9, 0.0, 2023-09-30 16:29:20.195
196.0, 40330.83949456686, 18803.49443000489, -187500.02235174447, -187500.02235174447, 29570.843824248772, -187500.02235174447, 11070.550807780124, -103746.73947653049, -0.188, 0.986, -0.026000000000000002, 192.0, 0.0, 0.0, 0.0, 0.0, 0.0, 0.0, 0.0, 0.0, 0.0, 1.696109360195216E9, 0.0, 2023-09-30 16:29:20.195
197.0, 40305.73848554355, 18805.01434862785, -187500.02235174447, -187500.02235174447, 29521.55822772482, -187500.02235174447, 10983.93779801581, -103891.06469047841, -0.188, 0.986, -0.026000000000000002, 192.0, 0.0, 0.0, 0.0, 0.0, 0.0, 0.0, 0.0, 0.0, 0.0, 1.6961093601952271E9, 0.0, 2023-09-30 16:29:20.195
198.0, 40353.45945995563, 18818.850078445685, -187500.02235174447, -187500.02235174447, 29489.952861065016, -187500.02235174447, 10930.852404934456, -104037.42391317176, -0.188, 0.986, -0.026000000000000002, 192.0, 0.0, 0.0, 0.0, 0.0, 0.0, 0.0, 0.0, 0.0, 0.0, 1.6961093601952384E9, 0.0, 2023-09-30 16:29:20.195
199.0, 40366.51287871753, 18812.926866165028, -187500.02235174447, -187500.02235174447, 29529.71661445101, -187500.02235174447, 11006.311894215572, -103898.6195801043, -0.188, 0.986, -0.026000000000000002, 192.0, 0.0, 0.0, 0.0, 0.0, 0.0, 0.0, 0.0, 0.0, 0.0, 1.6961093601952505E9, 0.0, 2023-09-30 16:29:20.195
200.0, 40332.58293063437, 18816.994883655894, -187500.02235174447, -187500.02235174447, 29524.50865799292, -187500.02235174447, 11044.80159816761, -103760.95518600407, -0.188, 0.986, -0.026000000000000002, 192.0, 0.0, 0.0, 0.0, 0.0, 0.0, 0.0, 0.0, 0.0, 0.0, 1.696109360195262E9, 0.0, 2023-09-30 16:29:20.195
201.0, 40315.0144594925, 18807.160116095558, -187500.02235174447, -187500.02235174447, 29486.488340674445, -187500.02235174447, 10984.943626516299, -103853.33494583785, -0.188, 0.986, -0.026000000000000002, 192.0, 0.0, 0.0, 0.0, 0.0, 0.0, 0.0, 0.0, 0.0, 0.0, 1.6961093601952727E9, 0.0, 2023-09-30 16:29:20.195
202.0, 40351.35839597683, 18805.77430793933, -187500.02235174447, -187500.02235174447, 29465.812977053283, -187500.02235174447, 10912.881602392388, -104047.10221852091, -0.194, 0.984, -0.02, 192.0, 249.0, 240.0, 30.0, 192.0, 255.0, 96.0, 0.0, 0.0, 0.0, 1.696109360195284E9, 0.0, 2023-09-30 16:29:20.195
203.0, 40355.69463440116, 18798.62174971363, -187500.02235174447, -187500.02235174447, 29496.16664602359, -187500.02235174447, 10957.562739558547, -103996.52022081855, -0.194, 0.984, -0.02, 192.0, 0.0, 0.0, 0.0, 0.0, 0.0, 0.0, 0.0, 0.0, 0.0, 1.6961093601952949E9, 0.0, 2023-09-30 16:29:20.195
204.0, 40295.92606972767, 18801.2369038149, -187500.02235174447, -187500.02235174447, 29523.614588214707, -187500.02235174447, 11028.440121226326, -103861.7168500086, -0.194, 0.984, -0.02, 192.0, 0.0, 0.0, 0.0, 0.0, 0.0, 0.0, 0.0, 0.0, 0.0, 1.6961093601953075E9, 0.0, 2023-09-30 16:29:20.195
205.0, 40261.90671466669, 18800.1863718255, -187500.02235174447, -187500.02235174447, 29508.996547340936, -187500.02235174447, 11001.774490091144, -103917.9761908026, -0.194, 0.984, -0.02, 192.0, 0.0, 0.0, 0.0, 0.0, 0.0, 0.0, 0.0, 0.0, 0.0, 1.6961093601953185E9, 0.0, 2023-09-30 16:29:20.195
206.0, 40348.36326221982, 18812.52453476483, -187500.02235174447, -187500.02235174447, 29486.26482322989, -187500.02235174447, 10943.078809151508, -104112.9728094307, -0.194, 0.984, -0.02, 192.0, 0.0, 0.0, 0.0, 0.0, 0.0, 0.0, 0.0, 0.0, 0.0, 1.6961093601953297E9, 0.0, 2023-09-30 16:29:20.195
207.0, 40403.92969893572, 18826.4943750494, -187500.02235174447, -187500.02235174447, 29514.3162625213, -187500.02235174447, 10963.150675672374, -104118.94072520027, -0.194, 0.984, -0.02, 192.0, 0.0, 0.0, 0.0, 0.0, 0.0, 0.0, 0.0, 0.0, 0.0, 1.6961093601953409E9, 0.0, 2023-09-30 16:29:20.195
208.0, 40340.51779991601, 18813.887991176605, -187500.02235174447, -187500.02235174447, 29515.590311955253, -187500.02235174447, 10994.21960046525, -104042.67657311876, -0.194, 0.984, -0.02, 192.0, 0.0, 0.0, 0.0, 0.0, 0.0, 0.0, 0.0, 0.0, 0.0, 1.6961093601953516E9, 0.0, 2023-09-30 16:29:20.195
209.0, 40288.81821499088, 18795.268988045336, -187500.02235174447, -187500.02235174447, 29489.058791286803, -187500.02235174447, 10982.976673004232, -104074.43840198976, -0.194, 0.984, -0.02, 192.0, 0.0, 0.0, 0.0, 0.0, 0.0, 0.0, 0.0, 0.0, 0.0, 1.6961093601953628E9, 0.0, 2023-09-30 16:29:20.195
210.0, 40285.197232389124, 18792.00563335486, -187500.02235174447, -187500.02235174447, 29422.808220721272, -187500.02235174447, 10890.10517479243, -104346.41442852192, -0.194, 0.984, -0.02, 192.0, 0.0, 0.0, 0.0, 0.0, 0.0, 0.0, 0.0, 0.0, 0.0, 1.6961093601953917E9, 0.0, 2023-09-30 16:29:20.195
211.0, 40339.46726792661, 18811.71987196444, -187500.02235174447, -187500.02235174447, 29394.66737445204, -187500.02235174447, 10860.779686067068, -104504.82124147669, -0.194, 0.984, -0.02, 192.0, 0.0, 0.0, 0.0, 0.0, 0.0, 0.0, 0.0, 0.0, 0.0, 1.6961093601954021E9, 0.0, 2023-09-30 16:29:20.195
212.0, 40300.01643896299, 18812.211610342456, -187500.02235174447, -187500.02235174447, 29395.360278530155, -187500.02235174447, 10893.30147424954, -104502.1166803976, -0.19, 0.976, -0.018000000000000002, 192.0, 250.0, 16.0, 30.0, 128.0, 255.0, 112.0, 0.0, 0.0, 0.0, 1.6961093601954126E9, 0.0, 2023-09-30 16:29:20.195
213.0, 40230.323699751345, 18789.56929320923, -187500.02235174447, -187500.02235174447, 29375.400170731566, -187500.02235174447, 10893.077956804986, -104523.75316903033, -0.19, 0.976, -0.018000000000000002, 192.0, 0.0, 0.0, 0.0, 0.0, 0.0, 0.0, 0.0, 0.0, 0.0, 1.696109360195423E9, 0.0, 2023-09-30 16:29:20.195
214.0, 40261.77260419996, 18783.1319908061, -187500.02235174447, -187500.02235174447, 29356.401187944557, -187500.02235174447, 10833.62231655387, -104709.60792417622, -0.19, 0.976, -0.018000000000000002, 192.0, 0.0, 0.0, 0.0, 0.0, 0.0, 0.0, 0.0, 0.0, 0.0, 1.6961093601954334E9, 0.0, 2023-09-30 16:29:20.195
215.0, 40354.979378578595, 18827.38844482761, -187500.02235174447, -187500.02235174447, 29397.438990764498, -187500.02235174447, 10865.764125080601, -104737.83817742327, -0.19, 0.976, -0.018000000000000002, 192.0, 0.0, 0.0, 0.0, 0.0, 0.0, 0.0, 0.0, 0.0, 0.0, 1.6961093601954443E9, 0.0, 2023-09-30 16:29:20.195
216.0, 40353.9735500781, 18834.33983735321, -187500.02235174447, -187500.02235174447, 29454.525346103354, -187500.02235174447, 10957.898015725377, -104585.57809419371, -0.19, 0.976, -0.018000000000000002, 192.0, 0.0, 0.0, 0.0, 0.0, 0.0, 0.0, 0.0, 0.0, 0.0, 1.6961093601954548E9, 0.0, 2023-09-30 16:29:20.195
217.0, 40298.51887208449, 18828.908363450573, -187500.02235174447, -187500.02235174447, 29466.103549731204, -187500.02235174447, 10981.322643914538, -104517.0699974382, -0.19, 0.976, -0.018000000000000002, 192.0, 0.0, 0.0, 0.0, 0.0, 0.0, 0.0, 0.0, 0.0, 0.0, 1.696109360195466E9, 0.0, 2023-09-30 16:29:20.195
218.0, 40282.11269165429, 18829.757729739875, -187500.02235174447, -187500.02235174447, 29419.142534630602, -187500.02235174447, 10902.912724365322, -104699.19201126003, -0.19, 0.976, -0.018000000000000002, 192.0, 0.0, 0.0, 0.0, 0.0, 0.0, 0.0, 0.0, 0.0, 0.0, 1.696109360195477E9, 0.0, 2023-09-30 16:29:20.195
219.0, 40307.19134893314, 18838.094930421703, -187500.02235174447, -187500.02235174447, 29394.24269130739, -187500.02235174447, 10871.173247238785, -104823.06537903135, -0.19, 0.976, -0.018000000000000002, 192.0, 0.0, 0.0, 0.0, 0.0, 0.0, 0.0, 0.0, 0.0, 0.0, 1.6961093601954875E9, 0.0, 2023-09-30 16:29:20.195
220.0, 40288.63940103524, 18829.57891578423, -187500.02235174447, -187500.02235174447, 29450.502032101398, -187500.02235174447, 10943.771713229622, -104714.27943876738, -0.19, 0.976, -0.018000000000000002, 192.0, 0.0, 0.0, 0.0, 0.0, 0.0, 0.0, 0.0, 0.0, 0.0, 1.6961093601954987E9, 0.0, 2023-09-30 16:29:20.195
221.0, 40249.188572071624, 18829.511860550865, -187500.02235174447, -187500.02235174447, 29447.618657066665, -187500.02235174447, 10976.762888045656, -104629.99101042641, -0.19, 0.976, -0.018000000000000002, 192.0, 0.0, 0.0, 0.0, 0.0, 0.0, 0.0, 0.0, 0.0, 0.0, 1.6961093601955097E9, 0.0, 2023-09-30 16:29:20.195
222.0, 40244.96409236957, 18834.384540842122, -187500.02235174447, -187500.02235174447, 29388.364182515645, -187500.02235174447, 10920.369436784917, -104757.86534045522, -0.186, 0.978, -0.02, 192.0, 250.0, 48.0, 30.0, 144.0, 255.0, 96.0, 0.0, 0.0, 0.0, 1.696109360195521E9, 0.0, 2023-09-30 16:29:20.195
223.0, 40296.48486333905, 18832.283476863322, -187500.02235174447, -187500.02235174447, 29393.68389769601, -187500.02235174447, 10877.409383941816, -104913.65699930872, -0.186, 0.978, -0.02, 192.0, 0.0, 0.0, 0.0, 0.0, 0.0, 0.0, 0.0, 0.0, 0.0, 1.6961093601955347E9, 0.0, 2023-09-30 16:29:20.195
224.0, 40342.97649180609, 18823.543944781297, -187500.02235174447, -187500.02235174447, 29468.763407321385, -187500.02235174447, 10939.055495149552, -104834.35300998128, -0.186, 0.978, -0.02, 192.0, 0.0, 0.0, 0.0, 0.0, 0.0, 0.0, 0.0, 0.0, 0.0, 1.6961093601955645E9, 0.0, 2023-09-30 16:29:20.195
225.0, 40298.8094447624, 18805.506087005866, -187500.02235174447, -187500.02235174447, 29498.915910591593, -187500.02235174447, 10989.88336204092, -104721.18612780406, -0.186, 0.978, -0.02, 192.0, 0.0, 0.0, 0.0, 0.0, 0.0, 0.0, 0.0, 0.0, 0.0, 1.6961093601955829E9, 0.0, 2023-09-30 16:29:20.195
226.0, 40245.36642376977, 18794.710194433952, -187500.02235174447, -187500.02235174447, 29447.819822766764, -187500.02235174447, 10942.587070773492, -104810.07901550282, -0.186, 0.978, -0.02, 192.0, 0.0, 0.0, 0.0, 0.0, 0.0, 0.0, 0.0, 0.0, 0.0, 1.696109360195596E9, 0.0, 2023-09-30 16:29:20.195
227.0, 40250.73084243904, 18833.982209441925, -187500.02235174447, -187500.02235174447, 29387.87244413763, -187500.02235174447, 10876.738831608156, -105013.12226213483, -0.186, 0.978, -0.02, 192.0, 0.0, 0.0, 0.0, 0.0, 0.0, 0.0, 0.0, 0.0, 0.0, 1.6961093601956089E9, 0.0, 2023-09-30 16:29:20.195
228.0, 40270.60154325981, 18831.970552440947, -187500.02235174447, -187500.02235174447, 29424.23873236641, -187500.02235174447, 10903.382110998882, -105010.86473594484, -0.186, 0.978, -0.02, 192.0, 0.0, 0.0, 0.0, 0.0, 0.0, 0.0, 0.0, 0.0, 0.0, 1.6961093601956248E9, 0.0, 2023-09-30 16:29:20.195
229.0, 40252.51898199546, 18808.09888936268, -187500.02235174447, -187500.02235174447, 29488.075314530768, -187500.02235174447, 10977.03110897912, -104887.61721701828, -0.186, 0.978, -0.02, 192.0, 0.0, 0.0, 0.0, 0.0, 0.0, 0.0, 0.0, 0.0, 0.0, 1.6961093601956391E9, 0.0, 2023-09-30 16:29:20.195
230.0, 40233.117667808256, 18802.354491037666, -187500.02235174447, -187500.02235174447, 29459.286267672334, -187500.02235174447, 10951.617175533436, -104939.47326415459, -0.186, 0.978, -0.02, 192.0, 0.0, 0.0, 0.0, 0.0, 0.0, 0.0, 0.0, 0.0, 0.0, 1.696109360195655E9, 0.0, 2023-09-30 16:29:20.195
231.0, 40252.697795951106, 18807.562447495755, -187500.02235174447, -187500.02235174447, 29408.994842647895, -187500.02235174447, 10886.998282313143, -105147.97033643369, -0.186, 0.978, -0.02, 192.0, 0.0, 0.0, 0.0, 0.0, 0.0, 0.0, 0.0, 0.0, 0.0, 1.6961093601956716E9, 0.0, 2023-09-30 16:29:20.195
232.0, 40305.3138023989, 18826.561430282763, -187500.02235174447, -187500.02235174447, 29432.30771211478, -187500.02235174447, 10903.404462743338, -105175.50768560263, -0.186, 0.978, -0.02, 192.0, 0.0, 0.0, 0.0, 0.0, 0.0, 0.0, 0.0, 0.0, 0.0, 1.6961093601956997E9, 0.0, 2023-09-30 16:29:20.195
233.0, 40275.85420320681, 18820.079424390726, -187500.02235174447, -187500.02235174447, 29453.273648413855, -187500.02235174447, 10957.182759902807, -105075.28246346503, -0.198, 0.966, -0.018000000000000002, 192.0, 249.0, 208.0, 30.0, 48.0, 255.0, 112.0, 0.0, 0.0, 0.0, 1.6961093601957116E9, 0.0, 2023-09-30 16:29:20.195
234.0, 40219.37134496824, 18795.872485145628, -187500.02235174447, -187500.02235174447, 29438.096813928703, -187500.02235174447, 10956.802780247066, -105064.68773659322, -0.198, 0.966, -0.018000000000000002, 192.0, 0.0, 0.0, 0.0, 0.0, 0.0, 0.0, 0.0, 0.0, 0.0, 1.6961093601957235E9, 0.0, 2023-09-30 16:29:20.195
235.0, 40186.78250155241, 18783.422563484022, -187500.02235174447, -187500.02235174447, 29384.296165024778, -187500.02235174447, 10868.669851859791, -105295.84947775, -0.198, 0.966, -0.018000000000000002, 192.0, 0.0, 0.0, 0.0, 0.0, 0.0, 0.0, 0.0, 0.0, 0.0, 1.6961093601957364E9, 0.0, 2023-09-30 16:29:20.195
236.0, 40281.1068631538, 18804.321444549732, -187500.02235174447, -187500.02235174447, 29432.575933048243, -187500.02235174447, 10901.705730164735, -105324.03502750814, -0.198, 0.966, -0.018000000000000002, 192.0, 0.0, 0.0, 0.0, 0.0, 0.0, 0.0, 0.0, 0.0, 0.0, 1.6961093601957486E9, 0.0, 2023-09-30 16:29:20.195
237.0, 40307.19134893314, 18809.01531088535, -187500.02235174447, -187500.02235174447, 29484.387276695645, -187500.02235174447, 10978.036937479608, -105195.75836607914, -0.198, 0.966, -0.018000000000000002, 192.0, 0.0, 0.0, 0.0, 0.0, 0.0, 0.0, 0.0, 0.0, 0.0, 1.696109360195762E9, 0.0, 2023-09-30 16:29:20.195
238.0, 40262.08552862234, 18813.597418498688, -187500.02235174447, -187500.02235174447, 29462.482567129442, -187500.02235174447, 10959.417934348337, -105191.75740382164, -0.198, 0.966, -0.018000000000000002, 192.0, 0.0, 0.0, 0.0, 0.0, 0.0, 0.0, 0.0, 0.0, 0.0, 1.6961093601957755E9, 0.0, 2023-09-30 16:29:20.195
239.0, 40229.02729857294, 18813.15038360958, -187500.02235174447, -187500.02235174447, 29393.01334536235, -187500.02235174447, 10850.386124895349, -105435.6819910624, -0.198, 0.966, -0.018000000000000002, 192.0, 0.0, 0.0, 0.0, 0.0, 0.0, 0.0, 0.0, 0.0, 0.0, 1.6961093601957889E9, 0.0, 2023-09-30 16:29:20.195
0.0, 0.0, 0.0, 0.0, 0.0, 0.0, 0.0, 0.0, 0.0, -0.096, 0.9500000000000001, 0.146, 192.0, 253.0, 0.0, 29.0, 176.0, 4.0, 144.0, 0.0, 0.0, 0.0, 1.6961093603028855E9, 0.0, 2023-09-30 16:29:20.302
1.0, 158318.8141368406, -165776.36191563154, -177409.84140751857, -172441.16037382607, 158399.50393432425, -177626.69803222397, 158326.50313693323, -187500.02235174447, -0.096, 0.9500000000000001, 0.146, 192.0, 0.0, 0.0, 0.0, 0.0, 0.0, 0.0, 0.0, 0.0, 0.0, 1.6961093607812705E9, 0.0, 2023-09-30 16:29:20.781
2.0, 158307.59356112406, -165892.83685598813, -177403.3146981376, -172438.76873716936, 158388.05984116314, -177623.09940136666, 158315.03669202767, -187500.02235174447, -0.096, 0.9500000000000001, 0.146, 192.0, 0.0, 0.0, 0.0, 0.0, 0.0, 0.0, 0.0, 0.0, 0.0, 1.6961093607815342E9, 0.0, 2023-09-30 16:29:20.781
3.0, 158307.07947100158, -165053.32768599127, -177400.81130275864, -172431.16914405455, 158387.50104755178, -177625.20046534546, 158314.70141586082, -187500.02235174447, -0.096, 0.9500000000000001, 0.146, 192.0, 0.0, 0.0, 0.0, 0.0, 0.0, 0.0, 0.0, 0.0, 0.0, 1.6961093607815473E9, 0.0, 2023-09-30 16:29:20.781
4.0, 158306.09599424555, -164578.12959887143, -177396.69858177885, -172419.32271949324, 158386.89755045148, -177617.55616874172, 158314.23202922728, -187500.02235174447, -0.096, 0.9500000000000001, 0.146, 192.0, 0.0, 0.0, 0.0, 0.0, 0.0, 0.0, 0.0, 0.0, 0.0, 1.6961093607815597E9, 0.0, 2023-09-30 16:29:20.781
5.0, 158291.99204349425, -165631.83553598353, -177390.64125903146, -172425.0000625849, 158372.41362004445, -177610.24714830486, 158299.54693312015, -187500.02235174447, -0.096, 0.9500000000000001, 0.146, 192.0, 0.0, 0.0, 0.0, 0.0, 0.0, 0.0, 0.0, 0.0, 0.0, 1.696109360781571E9, 0.0, 2023-09-30 16:29:20.781
6.0, 158282.38079337846, -165907.54430383974, -177387.40025608544, -172426.96701609695, 158362.80236992866, -177608.45900874844, 158289.82392428207, -187500.02235174447, -0.096, 0.9500000000000001, 0.146, 192.0, 0.0, 0.0, 0.0, 0.0, 0.0, 0.0, 0.0, 0.0, 0.0, 1.6961093607815816E9, 0.0, 2023-09-30 16:29:20.781
7.0, 158278.93862473234, -165172.90951882716, -177383.24283161675, -172420.17208578254, 158359.29314604917, -177610.24714830486, 158286.5605695916, -187500.02235174447, -0.096, 0.9500000000000001, 0.146, 192.0, 0.0, 0.0, 0.0, 0.0, 0.0, 0.0, 0.0, 0.0, 0.0, 1.6961093607815921E9, 0.0, 2023-09-30 16:29:20.781
8.0, 158278.5586450766, -164473.61284179843, -177379.35362808153, -172406.2469489869, 158359.89664314946, -177603.22870054588, 158287.25347366973, -187500.02235174447, -0.044, 0.9460000000000001, 0.228, 192.0, 254.0, 160.0, 29.0, 144.0, 7.0, 32.0, 0.0, 0.0, 0.0, 1.696109360781603E9, 0.0, 2023-09-30 16:29:20.781
9.0, 158266.68986877083, -165369.73898050058, -177373.18454661185, -172409.93498682202, 158347.22320404332, -177595.69616266445, 158274.44592409683, -187500.02235174447, -0.044, 0.9460000000000001, 0.228, 192.0, 0.0, 0.0, 0.0, 0.0, 0.0, 0.0, 0.0, 0.0, 0.0, 1.6961093607816136E9, 0.0, 2023-09-30 16:29:20.781
10.0, 158254.9104994429, -165896.14491416753, -177369.04947388763, -172412.66189964558, 158335.24266901525, -177591.56108994022, 158262.33127860204, -187500.02235174447, -0.044, 0.9460000000000001, 0.228, 192.0, 0.0, 0.0, 0.0, 0.0, 0.0, 0.0, 0.0, 0.0, 0.0, 1.696109360781624E9, 0.0, 2023-09-30 16:29:20.781
11.0, 158249.27785984013, -165288.37863068326, -177363.9756278963, -172406.939853065, 158329.632381157, -177592.96924984088, 158256.8998046994, -187500.02235174447, -0.044, 0.9460000000000001, 0.228, 192.0, 0.0, 0.0, 0.0, 0.0, 0.0, 0.0, 0.0, 0.0, 0.0, 1.6961093607816343E9, 0.0, 2023-09-30 16:29:20.781
12.0, 158246.32742957206, -164433.62557096788, -177357.69478770433, -172389.70665808997, 158328.11246253402, -177584.78851137025, 158255.5587000321, -187500.02235174447, -0.044, 0.9460000000000001, 0.228, 192.0, 0.0, 0.0, 0.0, 0.0, 0.0, 0.0, 0.0, 0.0, 0.0, 1.6961093607816448E9, 0.0, 2023-09-30 16:29:20.781
13.0, 158238.12433935696, -165092.24207308795, -177353.24679055772, -172392.0312395133, 158319.2164682408, -177578.68648513395, 158246.3944848054, -187500.02235174447, -0.044, 0.9460000000000001, 0.228, 192.0, 0.0, 0.0, 0.0, 0.0, 0.0, 0.0, 0.0, 0.0, 0.0, 1.6961093607816553E9, 0.0, 2023-09-30 16:29:20.781
14.0, 158225.40619676188, -165849.83209965614, -177348.73173817777, -172396.7921610823, 158305.7160145898, -177573.90321182052, 158232.75992068768, -187500.02235174447, -0.044, 0.9460000000000001, 0.228, 192.0, 0.0, 0.0, 0.0, 0.0, 0.0, 0.0, 0.0, 0.0, 0.0, 1.696109360781666E9, 0.0, 2023-09-30 16:29:20.781
15.0, 158219.1924118033, -165387.86624525386, -177344.23903754225, -172393.77467558082, 158299.54693312015, -177576.2724967328, 158226.7473014292, -187500.02235174447, -0.044, 0.9460000000000001, 0.228, 192.0, 0.0, 0.0, 0.0, 0.0, 0.0, 0.0, 0.0, 0.0, 0.0, 1.6961093607816763E9, 0.0, 2023-09-30 16:29:20.781
16.0, 158217.04664433558, -164453.60803051092, -177339.6569299289, -172379.04487598478, 158299.39047090895, -177571.7574443528, 158226.85906015147, -187500.02235174447, -0.044, 0.9460000000000001, 0.228, 192.0, 0.0, 0.0, 0.0, 0.0, 0.0, 0.0, 0.0, 0.0, 0.0, 1.6961093607816868E9, 0.0, 2023-09-30 16:29:20.781
17.0, 158209.6929204098, -164812.46528774087, -177334.2478077707, -172376.67559107253, 158291.94734000534, -177564.09079600463, 158219.1924118033, -187500.02235174447, -0.044, 0.9460000000000001, 0.228, 192.0, 0.0, 0.0, 0.0, 0.0, 0.0, 0.0, 0.0, 0.0, 0.0, 1.6961093607816973E9, 0.0, 2023-09-30 16:29:20.781
18.0, 158200.2381325052, -165757.74291250025, -177332.48201995876, -172385.97391676594, 158280.6597090554, -177561.94502853692, 158207.65891166436, -187500.02235174447, -0.018000000000000002, 0.9440000000000001, 0.266, 192.0, 255.0, 112.0, 29.0, 128.0, 8.0, 80.0, 0.0, 0.0, 0.0, 1.6961093607817075E9, 0.0, 2023-09-30 16:29:20.781
19.0, 158193.86788533544, -165464.13039733536, -177329.106906546, -172385.05749524327, 158274.24475839673, -177564.42607217148, 158201.37807147243, -187500.02235174447, -0.018000000000000002, 0.9440000000000001, 0.266, 192.0, 0.0, 0.0, 0.0, 0.0, 0.0, 0.0, 0.0, 0.0, 0.0, 1.6961093607817187E9, 0.0, 2023-09-30 16:29:20.781
20.0, 158191.65506263438, -164467.19789113975, -177324.54715067713, -172371.82526252573, 158273.21657815177, -177561.8556215591, 158200.6404639054, -187500.02235174447, -0.018000000000000002, 0.9440000000000001, 0.266, 192.0, 0.0, 0.0, 0.0, 0.0, 0.0, 0.0, 0.0, 0.0, 0.0, 1.6961093607817297E9, 0.0, 2023-09-30 16:29:20.781
21.0, 158185.50833290917, -164399.38269846234, -177318.35571746298, -172364.40448336655, 158267.8074559936, -177552.8031650547, 158195.23134174722, -187500.02235174447, -0.018000000000000002, 0.9440000000000001, 0.266, 192.0, 0.0, 0.0, 0.0, 0.0, 0.0, 0.0, 0.0, 0.0, 0.0, 1.6961093607817404E9, 0.0, 2023-09-30 16:29:20.781
22.0, 158174.71244033726, -165734.5641535001, -177314.75708660568, -172373.30047765977, 158255.111665143, -177548.82455454167, 158182.3790886854, -187500.02235174447, -0.018000000000000002, 0.9440000000000001, 0.266, 192.0, 0.0, 0.0, 0.0, 0.0, 0.0, 0.0, 0.0, 0.0, 0.0, 1.6961093607817512E9, 0.0, 2023-09-30 16:29:20.781
23.0, 158167.336364667, -165673.3650771815, -177311.56078714857, -172373.68045731552, 158247.53442377262, -177550.18801095345, 158174.8912542929, -187500.02235174447, -0.018000000000000002, 0.9440000000000001, 0.266, 192.0, 0.0, 0.0, 0.0, 0.0, 0.0, 0.0, 0.0, 0.0, 0.0, 1.696109360781762E9, 0.0, 2023-09-30 16:29:20.781
24.0, 158167.0234402446, -164769.2817174532, -177308.6550603694, -172364.49389034437, 158247.355609817, -177551.52911562077, 158174.86890254842, -187500.02235174447, -0.018000000000000002, 0.9440000000000001, 0.266, 192.0, 0.0, 0.0, 0.0, 0.0, 0.0, 0.0, 0.0, 0.0, 0.0, 1.6961093607817748E9, 0.0, 2023-09-30 16:29:20.781
25.0, 158165.34705941047, -164486.59920532696, -177305.39170567892, -172356.02257919582, 158246.28272608313, -177545.27062717327, 158173.86307404796, -187500.02235174447, -0.018000000000000002, 0.9440000000000001, 0.266, 192.0, 0.0, 0.0, 0.0, 0.0, 0.0, 0.0, 0.0, 0.0, 0.0, 1.696109360781785E9, 0.0, 2023-09-30 16:29:20.781
26.0, 158150.08081794748, -165571.66463990984, -177298.68618234232, -172362.21401240994, 158230.36828403096, -177538.2968829032, 158157.63570757338, -187500.02235174447, -0.018000000000000002, 0.9440000000000001, 0.266, 192.0, 0.0, 0.0, 0.0, 0.0, 0.0, 0.0, 0.0, 0.0, 0.0, 1.6961093607817953E9, 0.0, 2023-09-30 16:29:20.781
27.0, 158140.1789951538, -165681.5011121632, -177294.5064061292, -172362.81750951023, 158220.46646123726, -177537.2463509138, 158147.66682954633, -187500.02235174447, -0.018000000000000002, 0.9440000000000001, 0.266, 192.0, 0.0, 0.0, 0.0, 0.0, 0.0, 0.0, 0.0, 0.0, 0.0, 1.6961093607818055E9, 0.0, 2023-09-30 16:29:20.781
28.0, 158137.4744340747, -164857.48170107385, -177290.72896131623, -172355.39673035106, 158218.05247283608, -177539.4591736149, 158145.38695161187, -187500.02235174447, -0.018000000000000002, 0.9440000000000001, 0.266, 192.0, 0.0, 0.0, 0.0, 0.0, 0.0, 0.0, 0.0, 0.0, 0.0, 1.696109360781816E9, 0.0, 2023-09-30 16:29:20.781
29.0, 158132.86997471692, -164301.14678158128, -177284.38106589092, -172341.0245586663, 158214.94558035678, -177530.38436536604, 158142.50357657715, -187500.02235174447, -0.006, 0.9460000000000001, 0.28400000000000003, 192.0, 255.0, 208.0, 29.0, 144.0, 8.0, 224.0, 0.0, 0.0, 0.0, 1.6961093607818265E9, 0.0, 2023-09-30 16:29:20.781
30.0, 158119.66009374382, -165304.9189215802, -177277.7425977877, -172346.32192210222, 158200.30518773856, -177523.50002807382, 158127.5279077921, -187500.02235174447, -0.006, 0.9460000000000001, 0.28400000000000003, 192.0, 0.0, 0.0, 0.0, 0.0, 0.0, 0.0, 0.0, 0.0, 0.0, 1.6961093607818367E9, 0.0, 2023-09-30 16:29:20.781
31.0, 158111.1664308508, -165652.71206530478, -177276.088568698, -172350.9934366934, 158191.4986004232, -177523.54473156272, 158118.7213204767, -187500.02235174447, -0.006, 0.9460000000000001, 0.28400000000000003, 192.0, 0.0, 0.0, 0.0, 0.0, 0.0, 0.0, 0.0, 0.0, 0.0, 1.6961093607818475E9, 0.0, 2023-09-30 16:29:20.781
32.0, 158107.25487557112, -164937.8362223907, -177272.2440686517, -172345.80783197974, 158187.72115561023, -177526.67397578646, 158115.23444834168, -187500.02235174447, -0.006, 0.9460000000000001, 0.28400000000000003, 192.0, 0.0, 0.0, 0.0, 0.0, 0.0, 0.0, 0.0, 0.0, 0.0, 1.6961093607818575E9, 0.0, 2023-09-30 16:29:20.781
33.0, 158106.9195994043, -164030.15423180512, -177269.15952791687, -172332.64265449558, 158189.1963707443, -177521.42131583946, 158116.88847743138, -187500.02235174447, -0.006, 0.9460000000000001, 0.28400000000000003, 192.0, 0.0, 0.0, 0.0, 0.0, 0.0, 0.0, 0.0, 0.0, 0.0, 1.696109360781868E9, 0.0, 2023-09-30 16:29:20.781
34.0, 158099.27530280058, -164979.72339149992, -177265.2926761261, -172338.4764597984, 158180.36743168443, -177517.08507741513, 158107.7242622047, -187500.02235174447, -0.006, 0.9460000000000001, 0.28400000000000003, 192.0, 0.0, 0.0, 0.0, 0.0, 0.0, 0.0, 0.0, 0.0, 0.0, 1.6961093607818787E9, 0.0, 2023-09-30 16:29:20.781
35.0, 158089.82051489598, -165758.9722584453, -177263.16926040285, -172344.44437556798, 158170.10798097946, -177515.58751053663, 158097.37540452188, -187500.02235174447, -0.006, 0.9460000000000001, 0.28400000000000003, 192.0, 0.0, 0.0, 0.0, 0.0, 0.0, 0.0, 0.0, 0.0, 0.0, 1.696109360781889E9, 0.0, 2023-09-30 16:29:20.781
36.0, 158084.45609622673, -165182.6772311541, -177258.74361500068, -172340.46576505492, 158164.60945184345, -177518.71675476036, 158092.0556893415, -187500.02235174447, -0.006, 0.9460000000000001, 0.28400000000000003, 192.0, 0.0, 0.0, 0.0, 0.0, 0.0, 0.0, 0.0, 0.0, 0.0, 1.6961093607818992E9, 0.0, 2023-09-30 16:29:20.781
37.0, 158081.72918340316, -164288.24982503057, -177252.55218178657, -172323.94782590246, 158162.821312287, -177511.67595525694, 158090.46871548519, -187500.02235174447, -0.006, 0.9460000000000001, 0.28400000000000003, 192.0, 0.0, 0.0, 0.0, 0.0, 0.0, 0.0, 0.0, 0.0, 0.0, 1.6961093607819097E9, 0.0, 2023-09-30 16:29:20.781
38.0, 158074.73308738865, -164849.1668521365, -177248.97590267373, -172326.58533174818, 158155.46758836124, -177506.98208892133, 158083.04793632604, -187500.02235174447, -0.006, 0.9460000000000001, 0.28400000000000003, 192.0, 0.0, 0.0, 0.0, 0.0, 0.0, 0.0, 0.0, 0.0, 0.0, 1.69610936078192E9, 0.0, 2023-09-30 16:29:20.781
39.0, 158061.7690756046, -165664.357324166, -177244.77377471613, -172332.3744335621, 158141.90007947685, -177502.77996096373, 158069.30161348602, -187500.02235174447, 0.002, 0.9420000000000001, 0.3, 192.0, 0.0, 16.0, 29.0, 112.0, 9.0, 96.0, 0.0, 0.0, 0.0, 1.6961093607819302E9, 0.0, 2023-09-30 16:29:20.781
40.0, 158054.5047586566, -165238.6012957813, -177239.6328734914, -172329.49105852738, 158134.56870729552, -177504.92572843144, 158062.12670351585, -187500.02235174447, 0.002, 0.9420000000000001, 0.3, 192.0, 0.0, 0.0, 0.0, 0.0, 0.0, 0.0, 0.0, 0.0, 0.0, 1.6961093607819405E9, 0.0, 2023-09-30 16:29:20.781
41.0, 158050.5037963991, -164289.90385412026, -177233.8884751664, -172314.24716880886, 158132.80291948354, -177499.9412894179, 158060.67384012626, -187500.02235174447, 0.002, 0.9420000000000001, 0.3, 192.0, 0.0, 0.0, 0.0, 0.0, 0.0, 0.0, 0.0, 0.0, 0.0, 1.696109360781951E9, 0.0, 2023-09-30 16:29:20.781
42.0, 158045.0946742409, -164544.46787172175, -177230.06632686453, -172312.59313971916, 158127.66201825882, -177494.33100155962, 158055.5105871571, -187500.02235174447, 0.002, 0.9420000000000001, 0.3, 192.0, 0.0, 0.0, 0.0, 0.0, 0.0, 0.0, 0.0, 0.0, 0.0, 1.6961093607819612E9, 0.0, 2023-09-30 16:29:20.781
43.0, 158034.36583690238, -165533.68902608028, -177226.55710298504, -172320.93034040098, 158114.4297855413, -177490.82177768013, 158041.9430782727, -187500.02235174447, 0.002, 0.9420000000000001, 0.3, 192.0, 0.0, 0.0, 0.0, 0.0, 0.0, 0.0, 0.0, 0.0, 0.0, 1.6961093607819717E9, 0.0, 2023-09-30 16:29:20.781
44.0, 158027.3026856545, -165286.97047078257, -177222.578492472, -172320.3715467896, 158107.3219308045, -177492.9451934034, 158034.8575752804, -187500.02235174447, 0.002, 0.9420000000000001, 0.3, 192.0, 0.0, 0.0, 0.0, 0.0, 0.0, 0.0, 0.0, 0.0, 0.0, 1.6961093607819822E9, 0.0, 2023-09-30 16:29:20.781
45.0, 158024.62047631986, -164302.0855548484, -177217.79521915858, -172307.76516291682, 158105.80201218152, -177490.77707419122, 158033.62822933536, -187500.02235174447, 0.002, 0.9420000000000001, 0.3, 192.0, 0.0, 0.0, 0.0, 0.0, 0.0, 0.0, 0.0, 0.0, 0.0, 1.6961093607819927E9, 0.0, 2023-09-30 16:29:20.781
46.0, 158020.03836870653, -164117.92953228112, -177212.4308004893, -172300.18792154646, 158102.04691911305, -177482.75279793178, 158029.78372928905, -187500.02235174447, 0.002, 0.9420000000000001, 0.3, 192.0, 0.0, 0.0, 0.0, 0.0, 0.0, 0.0, 0.0, 0.0, 0.0, 1.6961093607820027E9, 0.0, 2023-09-30 16:29:20.782
47.0, 158007.18611564473, -165497.72506925167, -177207.04403007557, -172307.5192937278, 158087.45122998374, -177476.8966408845, 158014.91981922626, -187500.02235174447, 0.002, 0.9420000000000001, 0.3, 192.0, 0.0, 0.0, 0.0, 0.0, 0.0, 0.0, 0.0, 0.0, 0.0, 1.696109360782013E9, 0.0, 2023-09-30 16:29:20.782
48.0, 157998.31247309595, -165507.49278157865, -177202.39486722887, -172307.1169623276, 158078.26466301258, -177476.56136471767, 158005.80030748848, -187500.02235174447, 0.002, 0.9420000000000001, 0.3, 192.0, 0.0, 0.0, 0.0, 0.0, 0.0, 0.0, 0.0, 0.0, 0.0, 1.6961093607820234E9, 0.0, 2023-09-30 16:29:20.782
49.0, 157996.546685284, -164635.77474782168, -177198.4162567158, -172297.84098837865, 158076.63298566735, -177477.05310309568, 158004.3474440989, -187500.02235174447, 0.008, 0.9400000000000001, 0.312, 192.0, 0.0, 64.0, 29.0, 96.0, 9.0, 192.0, 0.0, 0.0, 0.0, 1.6961093607820337E9, 0.0, 2023-09-30 16:29:20.782
50.0, 157994.4903247941, -164268.08855153187, -177194.10237003595, -172287.7156481404, 158075.02366006657, -177469.8334896366, 158002.87222896484, -187500.02235174447, 0.008, 0.9400000000000001, 0.312, 192.0, 0.0, 0.0, 0.0, 0.0, 0.0, 0.0, 0.0, 0.0, 0.0, 1.696109360782044E9, 0.0, 2023-09-30 16:29:20.782
51.0, 157983.22504558862, -165354.4280355487, -177191.28605023457, -172297.72922965637, 158063.22193899416, -177466.54778320168, 157990.77993521452, -187500.02235174447, 0.008, 0.9400000000000001, 0.312, 192.0, 0.0, 0.0, 0.0, 0.0, 0.0, 0.0, 0.0, 0.0, 0.0, 1.6961093607820544E9, 0.0, 2023-09-30 16:29:20.782
52.0, 157973.09970535038, -165538.24878194914, -177187.12862576588, -172298.73505815686, 158053.1189505004, -177464.9384576009, 157980.5875397429, -187500.02235174447, 0.008, 0.9400000000000001, 0.312, 192.0, 0.0, 0.0, 0.0, 0.0, 0.0, 0.0, 0.0, 0.0, 0.0, 1.696109360782065E9, 0.0, 2023-09-30 16:29:20.782
53.0, 157969.09874309288, -164765.81719706266, -177182.21124198573, -172291.00135457533, 158049.11798824288, -177466.2348587793, 157976.8324466744, -187500.02235174447, 0.008, 0.9400000000000001, 0.312, 192.0, 0.0, 0.0, 0.0, 0.0, 0.0, 0.0, 0.0, 0.0, 0.0, 1.696109360782162E9, 0.0, 2023-09-30 16:29:20.782
54.0, 157965.50011223558, -164146.3385994838, -177175.72923609367, -172275.80216834572, 158046.36872367488, -177456.95888483035, 157974.26199606207, -187500.02235174447, 0.008, 0.9400000000000001, 0.312, 192.0, 0.0, 0.0, 0.0, 0.0, 0.0, 0.0, 0.0, 0.0, 0.0, 1.696109360782194E9, 0.0, 2023-09-30 16:29:20.782
55.0, 157955.5312342085, -165124.00390195893, -177172.75645408113, -172284.161720772, 158035.7516450586, -177453.18144001742, 157963.44375174568, -187500.02235174447, 0.008, 0.9400000000000001, 0.312, 192.0, 0.0, 0.0, 0.0, 0.0, 0.0, 0.0, 0.0, 0.0, 0.0, 1.6961093607822044E9, 0.0, 2023-09-30 16:29:20.782
56.0, 157945.87528060382, -165549.80463383254, -177170.0742447465, -172288.20738651842, 158025.87217400936, -177451.54976267216, 157953.34076325188, -187500.02235174447, 0.008, 0.9400000000000001, 0.312, 192.0, 0.0, 0.0, 0.0, 0.0, 0.0, 0.0, 0.0, 0.0, 0.0, 1.6961093607822154E9, 0.0, 2023-09-30 16:29:20.782
57.0, 157942.52251893553, -164894.87616954758, -177167.01205575612, -172284.45229344993, 158022.56411582997, -177455.28250399622, 157950.18916728368, -187500.02235174447, 0.008, 0.9400000000000001, 0.312, 192.0, 0.0, 0.0, 0.0, 0.0, 0.0, 0.0, 0.0, 0.0, 0.0, 1.6961093607822416E9, 0.0, 2023-09-30 16:29:20.782
58.0, 157938.56626016693, -164090.90627323464, -177159.94890450823, -172267.04028451923, 158019.92660998425, -177446.05123353616, 157947.95399283816, -187500.02235174447, 0.008, 0.9400000000000001, 0.312, 192.0, 0.0, 0.0, 0.0, 0.0, 0.0, 0.0, 0.0, 0.0, 0.0, 1.696109360782252E9, 0.0, 2023-09-30 16:29:20.782
59.0, 157926.6304286278, -164861.39325635353, -177152.7069393047, -172268.3590374421, 158007.11906041135, -177437.46816366533, 157934.92292582072, -187500.02235174447, 0.006, 0.9420000000000001, 0.308, 192.0, 0.0, 48.0, 29.0, 112.0, 9.0, 160.0, 0.0, 0.0, 0.0, 1.6961093607822623E9, 0.0, 2023-09-30 16:29:20.782
60.0, 157914.7169488331, -165528.2128486887, -177148.84008751393, -172272.89644156653, 157994.66913874974, -177433.51190489673, 157922.2271349701, -187500.02235174447, 0.006, 0.9420000000000001, 0.308, 192.0, 0.0, 0.0, 0.0, 0.0, 0.0, 0.0, 0.0, 0.0, 0.0, 1.6961093607822728E9, 0.0, 2023-09-30 16:29:20.782
61.0, 157908.7266813191, -165012.33458666023, -177144.28033164507, -172269.3201624537, 157988.5894642579, -177435.90354155345, 157916.3709779228, -187500.02235174447, 0.006, 0.9420000000000001, 0.308, 192.0, 0.0, 0.0, 0.0, 0.0, 0.0, 0.0, 0.0, 0.0, 0.0, 1.6961093607822833E9, 0.0, 2023-09-30 16:29:20.782
62.0, 157910.73833832008, -164101.52335185092, -177143.29685488902, -172257.94312452592, 157992.00928115955, -177434.27186420822, 157920.05901575793, -187500.02235174447, 0.006, 0.9420000000000001, 0.308, 192.0, 0.0, 0.0, 0.0, 0.0, 0.0, 0.0, 0.0, 0.0, 0.0, 1.6961093607822936E9, 0.0, 2023-09-30 16:29:20.782
63.0, 157903.18344869418, -164593.97698569024, -177138.58063680897, -172258.27840069277, 157984.0967636224, -177427.8345618051, 157911.9229807762, -187500.02235174447, 0.006, 0.9420000000000001, 0.308, 192.0, 0.0, 0.0, 0.0, 0.0, 0.0, 0.0, 0.0, 0.0, 0.0, 1.6961093607823038E9, 0.0, 2023-09-30 16:29:20.782
64.0, 157887.33606187536, -165472.4005427838, -177131.13750590535, -172261.2511827053, 157967.22119655862, -177419.9220442679, 157894.8685997568, -187500.02235174447, 0.006, 0.9420000000000001, 0.308, 192.0, 0.0, 0.0, 0.0, 0.0, 0.0, 0.0, 0.0, 0.0, 0.0, 1.6961093607823143E9, 0.0, 2023-09-30 16:29:20.782
65.0, 157881.6140152948, -165115.1302594102, -177127.98590993715, -172260.53592688276, 157961.40974300026, -177422.91717802492, 157889.28066364297, -187500.02235174447, 0.006, 0.9420000000000001, 0.308, 192.0, 0.0, 0.0, 0.0, 0.0, 0.0, 0.0, 0.0, 0.0, 0.0, 1.696109360782325E9, 0.0, 2023-09-30 16:29:20.782
66.0, 157878.2165501376, -164169.0926753393, -177121.52625578956, -172244.82265053067, 157958.74988541007, -177417.5751111001, 157886.9560822196, -187500.02235174447, 0.006, 0.9420000000000001, 0.308, 192.0, 0.0, 0.0, 0.0, 0.0, 0.0, 0.0, 0.0, 0.0, 0.0, 1.6961093607823353E9, 0.0, 2023-09-30 16:29:20.782
67.0, 157870.12521864477, -164345.62675304734, -177114.70897373068, -172238.8547347611, 157951.10558880636, -177408.23208191778, 157879.22237863808, -187500.02235174447, 0.006, 0.9420000000000001, 0.308, 192.0, 0.0, 0.0, 0.0, 0.0, 0.0, 0.0, 0.0, 0.0, 0.0, 1.696109360782346E9, 0.0, 2023-09-30 16:29:20.782
68.0, 157859.95517491762, -165377.8750154823, -177113.14435161883, -172249.27064767727, 157939.77325436752, -177406.0639627056, 157867.59947152133, -187500.02235174447, 0.006, 0.9420000000000001, 0.308, 192.0, 0.0, 0.0, 0.0, 0.0, 0.0, 0.0, 0.0, 0.0, 0.0, 1.6961093607823563E9, 0.0, 2023-09-30 16:29:20.782
69.0, 157852.28852656943, -165204.8501616538, -177109.34455506143, -172248.93537151045, 157932.03955078596, -177407.33801213957, 157859.93282317315, -187500.02235174447, 0.006, 0.9420000000000001, 0.308, 192.0, 0.0, 0.0, 0.0, 0.0, 0.0, 0.0, 0.0, 0.0, 0.0, 1.6961093607823665E9, 0.0, 2023-09-30 16:29:20.782
70.0, 157849.09222711233, -164286.64049942978, -177103.91308115877, -172236.23958065984, 157929.35734145134, -177404.9240237384, 157857.54118651644, -187500.02235174447, 0.008, 0.9400000000000001, 0.31, 192.0, 0.0, 64.0, 29.0, 96.0, 9.0, 176.0, 0.0, 0.0, 0.0, 1.6961093607823768E9, 0.0, 2023-09-30 16:29:20.782
71.0, 157844.84539566582, -164144.57281167185, -177099.5097875011, -172228.61763580056, 157926.09398676085, -177397.5702998126, 157854.3672388038, -187500.02235174447, 0.008, 0.9400000000000001, 0.31, 192.0, 0.0, 0.0, 0.0, 0.0, 0.0, 0.0, 0.0, 0.0, 0.0, 1.6961093607823873E9, 0.0, 2023-09-30 16:29:20.782
72.0, 157831.9037356262, -165245.7091505181, -177094.7041624432, -172236.66426380447, 157911.74416682054, -177392.16117765443, 157839.7044944411, -187500.02235174447, 0.008, 0.9400000000000001, 0.31, 192.0, 0.0, 0.0, 0.0, 0.0, 0.0, 0.0, 0.0, 0.0, 0.0, 1.696109360782398E9, 0.0, 2023-09-30 16:29:20.782
73.0, 157823.61123843328, -165279.6167468568, -177091.4631594972, -172237.93831323844, 157903.49637311656, -177392.42939858788, 157831.36729375928, -187500.02235174447, 0.008, 0.9400000000000001, 0.31, 192.0, 0.0, 0.0, 0.0, 0.0, 0.0, 0.0, 0.0, 0.0, 0.0, 1.6961093607824082E9, 0.0, 2023-09-30 16:29:20.782
74.0, 157823.43242447765, -164435.2125448242, -177089.71972342965, -172231.59041781313, 157903.6751870722, -177395.7151050228, 157831.7025699261, -187500.02235174447, 0.008, 0.9400000000000001, 0.31, 192.0, 0.0, 0.0, 0.0, 0.0, 0.0, 0.0, 0.0, 0.0, 0.0, 1.6961093607824187E9, 0.0, 2023-09-30 16:29:20.782
75.0, 157817.8444883638, -164001.72281285797, -177082.63422043732, -172217.77703973974, 157899.33894864787, -177385.54506129565, 157827.61220069078, -187500.02235174447, 0.008, 0.9400000000000001, 0.31, 192.0, 0.0, 0.0, 0.0, 0.0, 0.0, 0.0, 0.0, 0.0, 0.0, 1.6961093607824292E9, 0.0, 2023-09-30 16:29:20.782
76.0, 157802.71235736756, -165070.7173431775, -177074.6993511557, -172222.35914735307, 157882.7092507731, -177377.02904665816, 157810.66957839366, -187500.02235174447, 0.008, 0.9400000000000001, 0.31, 192.0, 0.0, 0.0, 0.0, 0.0, 0.0, 0.0, 0.0, 0.0, 0.0, 1.6961093607824395E9, 0.0, 2023-09-30 16:29:20.782
77.0, 157793.48108690753, -165337.99950337404, -177071.8383278654, -172225.42133634345, 157873.29916635744, -177376.11262513552, 157801.19243874462, -187500.02235174447, 0.008, 0.9400000000000001, 0.31, 192.0, 0.0, 0.0, 0.0, 0.0, 0.0, 0.0, 0.0, 0.0, 0.0, 1.6961093607824497E9, 0.0, 2023-09-30 16:29:20.782
78.0, 157787.4014124157, -164600.21312239327, -177065.1328045288, -172216.63710077252, 157867.19714012113, -177375.8220524576, 157795.29157820842, -187500.02235174447, 0.008, 0.9400000000000001, 0.31, 192.0, 0.0, 0.0, 0.0, 0.0, 0.0, 0.0, 0.0, 0.0, 0.0, 1.69610936078246E9, 0.0, 2023-09-30 16:29:20.782
79.0, 157783.82513330283, -163931.3371695682, -177058.67315038125, -172201.12499012053, 157864.53728253095, -177366.7695959532, 157792.87758980723, -187500.02235174447, 0.008, 0.9400000000000001, 0.31, 192.0, 0.0, 0.0, 0.0, 0.0, 0.0, 0.0, 0.0, 0.0, 0.0, 1.6961093607824705E9, 0.0, 2023-09-30 16:29:20.782
80.0, 157775.10795296528, -164864.164872666, -177056.14740325778, -172209.52924603573, 157855.08249462635, -177363.64035172944, 157783.1545809692, -187500.02235174447, 0.006, 0.9420000000000001, 0.31, 192.0, 0.0, 48.0, 29.0, 112.0, 9.0, 176.0, 0.0, 0.0, 0.0, 1.6961093607824812E9, 0.0, 2023-09-30 16:29:20.782
81.0, 157766.30136564988, -165374.32108811394, -177054.85100207938, -172215.8547897166, 157845.98533463303, -177363.43918602934, 157774.01271748694, -187500.02235174447, 0.006, 0.9420000000000001, 0.31, 192.0, 0.0, 0.0, 0.0, 0.0, 0.0, 0.0, 0.0, 0.0, 0.0, 1.696109360782492E9, 0.0, 2023-09-30 16:29:20.782
82.0, 157760.19933941358, -164764.3866854175, -177049.46423166565, -172210.46801930285, 157839.83860490783, -177365.1602703524, 157768.00009822848, -187500.02235174447, 0.006, 0.9420000000000001, 0.31, 192.0, 0.0, 0.0, 0.0, 0.0, 0.0, 0.0, 0.0, 0.0, 0.0, 1.6961093607825038E9, 0.0, 2023-09-30 16:29:20.782
83.0, 157760.35580162477, -163936.67923649304, -177045.79854557497, -172196.7887516962, 157840.44210200812, -177360.0640726166, 157768.76005753997, -187500.02235174447, 0.006, 0.9420000000000001, 0.31, 192.0, 0.0, 0.0, 0.0, 0.0, 0.0, 0.0, 0.0, 0.0, 0.0, 1.696109360782515E9, 0.0, 2023-09-30 16:29:20.782
84.0, 157750.6327927867, -164642.07793975808, -177040.88116179482, -172199.8956441755, 157830.6520379367, -177354.18556382484, 157758.7911795129, -187500.02235174447, 0.006, 0.9420000000000001, 0.31, 192.0, 0.0, 0.0, 0.0, 0.0, 0.0, 0.0, 0.0, 0.0, 0.0, 1.6961093607825258E9, 0.0, 2023-09-30 16:29:20.782
85.0, 157736.77471122443, -165390.41434412176, -177036.03083324802, -172204.72362097783, 157816.5033836965, -177349.62580795598, 157744.55311829486, -187500.02235174447, 0.006, 0.9420000000000001, 0.31, 192.0, 0.0, 0.0, 0.0, 0.0, 0.0, 0.0, 0.0, 0.0, 0.0, 1.6961093607825363E9, 0.0, 2023-09-30 16:29:20.782
86.0, 157728.19164135357, -164925.7215768959, -177029.45942037815, -172199.67212673093, 157807.76385161447, -177350.117546334, 157735.90299319066, -187500.02235174447, 0.006, 0.9420000000000001, 0.31, 192.0, 0.0, 0.0, 0.0, 0.0, 0.0, 0.0, 0.0, 0.0, 0.0, 1.6961093607825465E9, 0.0, 2023-09-30 16:29:20.782
87.0, 157726.98464715297, -164009.76944086188, -177024.296167409, -172184.87527190155, 157806.6462643917, -177345.33427302056, 157735.09833039026, -187500.02235174447, 0.006, 0.9420000000000001, 0.31, 192.0, 0.0, 0.0, 0.0, 0.0, 0.0, 0.0, 0.0, 0.0, 0.0, 1.6961093607825582E9, 0.0, 2023-09-30 16:29:20.782
88.0, 157720.6814552166, -164421.66738768428, -177020.67518480722, -172185.4340655129, 157800.29836896638, -177340.12631656247, 157728.61632449823, -187500.02235174447, 0.006, 0.9420000000000001, 0.31, 192.0, 0.0, 0.0, 0.0, 0.0, 0.0, 0.0, 0.0, 0.0, 0.0, 1.6961093607825692E9, 0.0, 2023-09-30 16:29:20.782
89.0, 157707.73979517698, -165364.41926532023, -177017.5906440724, -172193.8383214281, 157787.33435718232, -177337.01942408318, 157715.3840917807, -187500.02235174447, 0.006, 0.9420000000000001, 0.31, 192.0, 0.0, 0.0, 0.0, 0.0, 0.0, 0.0, 0.0, 0.0, 0.0, 1.69610936078258E9, 0.0, 2023-09-30 16:29:20.782
90.0, 157702.59889395224, -165065.4199797416, -177015.84720800488, -172195.02296388423, 157782.17110421314, -177341.5568282076, 157710.31024578933, -187500.02235174447, 0.006, 0.9420000000000001, 0.318, 192.0, 0.0, 48.0, 29.0, 112.0, 9.0, 240.0, 0.0, 0.0, 0.0, 1.6961093607825913E9, 0.0, 2023-09-30 16:29:20.782
91.0, 157702.9341701191, -164131.83231733233, -177012.76266727003, -172183.95885037887, 157782.48402863552, -177340.9086276184, 157710.9360946341, -187500.02235174447, 0.006, 0.9420000000000001, 0.318, 192.0, 0.0, 0.0, 0.0, 0.0, 0.0, 0.0, 0.0, 0.0, 0.0, 1.6961093607826023E9, 0.0, 2023-09-30 16:29:20.782
92.0, 157695.15576304862, -164223.0050829655, -177005.5207020665, -172176.7839404087, 157774.70562156508, -177331.610301925, 157703.11298407472, -187500.02235174447, 0.006, 0.9420000000000001, 0.318, 192.0, 0.0, 0.0, 0.0, 0.0, 0.0, 0.0, 0.0, 0.0, 0.0, 1.6961093607826133E9, 0.0, 2023-09-30 16:29:20.782
93.0, 157679.53189367437, -165295.01709878648, -177000.24569037507, -172184.45058875688, 157759.10410393527, -177326.4023454669, 157687.2655972559, -187500.02235174447, 0.006, 0.9420000000000001, 0.318, 192.0, 0.0, 0.0, 0.0, 0.0, 0.0, 0.0, 0.0, 0.0, 0.0, 1.6961093607826245E9, 0.0, 2023-09-30 16:29:20.782
94.0, 157670.50178891444, -165186.76760038943, -176995.99885892856, -172184.2270713123, 157750.14105440868, -177327.13995303394, 157678.30254772934, -187500.02235174447, 0.006, 0.9420000000000001, 0.318, 192.0, 0.0, 0.0, 0.0, 0.0, 0.0, 0.0, 0.0, 0.0, 0.0, 1.6961093607826355E9, 0.0, 2023-09-30 16:29:20.782
95.0, 157671.93230055957, -164292.34019426588, -176994.90362345026, -172177.36508576456, 157751.37040035374, -177330.4480112133, 157679.8671698412, -187500.02235174447, 0.006, 0.9420000000000001, 0.318, 192.0, 0.0, 0.0, 0.0, 0.0, 0.0, 0.0, 0.0, 0.0, 0.0, 1.696109360782646E9, 0.0, 2023-09-30 16:29:20.782
96.0, 157670.4123819366, -164064.88884268867, -176991.9755449266, -172170.50310021677, 157749.87283347524, -177324.97183382176, 157678.50371342944, -187500.02235174447, 0.006, 0.9420000000000001, 0.318, 192.0, 0.0, 0.0, 0.0, 0.0, 0.0, 0.0, 0.0, 0.0, 0.0, 1.6961093607826564E9, 0.0, 2023-09-30 16:29:20.782
97.0, 157655.48141664045, -165171.79193160438, -176986.83464370188, -172178.95205962087, 157735.12068213473, -177320.07680178605, 157663.41628592208, -187500.02235174447, 0.006, 0.9420000000000001, 0.318, 192.0, 0.0, 0.0, 0.0, 0.0, 0.0, 0.0, 0.0, 0.0, 0.0, 1.6961093607826676E9, 0.0, 2023-09-30 16:29:20.782
98.0, 157644.5067101129, -165277.20275845562, -176981.93961166617, -172179.2426322988, 157724.05656862934, -177318.69099362983, 157652.39687590563, -187500.02235174447, 0.006, 0.9420000000000001, 0.318, 192.0, 0.0, 0.0, 0.0, 0.0, 0.0, 0.0, 0.0, 0.0, 0.0, 1.696109360782679E9, 0.0, 2023-09-30 16:29:20.782
99.0, 157643.970268246, -164463.48750156016, -176980.12912036528, -172174.05702758516, 157723.38601629567, -177323.07193554306, 157651.88278578315, -187500.02235174447, 0.006, 0.9420000000000001, 0.318, 192.0, 0.0, 0.0, 0.0, 0.0, 0.0, 0.0, 0.0, 0.0, 0.0, 1.6961093607826905E9, 0.0, 2023-09-30 16:29:20.782
100.0, 157638.42703562108, -163958.13691117012, -176971.50134700554, -172158.16493727744, 157717.6863214596, -177311.94076680433, 157646.3619049027, -187500.02235174447, 0.01, 0.9440000000000001, 0.322, 192.0, 0.0, 80.0, 29.0, 128.0, 10.0, 16.0, 0.0, 0.0, 0.0, 1.6961093607827024E9, 0.0, 2023-09-30 16:29:20.782
101.0, 157623.74193951391, -165001.33752838822, -176965.6228382138, -172164.95986759185, 157703.09063233028, -177306.24107196822, 157631.5650500733, -187500.02235174447, 0.01, 0.9440000000000001, 0.322, 192.0, 0.0, 0.0, 0.0, 0.0, 0.0, 0.0, 0.0, 0.0, 0.0, 1.696109360782714E9, 0.0, 2023-09-30 16:29:20.782
102.0, 157614.3989103316, -165342.5369074985, -176963.87940214627, -172169.65373392747, 157693.8146583813, -177306.3528306905, 157622.1549656576, -187500.02235174447, 0.01, 0.9440000000000001, 0.322, 192.0, 0.0, 0.0, 0.0, 0.0, 0.0, 0.0, 0.0, 0.0, 0.0, 1.6961093607827249E9, 0.0, 2023-09-30 16:29:20.782
103.0, 157611.78375623035, -164638.4122536674, -176961.15248932273, -172166.03275132572, 157691.08774555777, -177311.0019935372, 157619.58451504525, -187500.02235174447, 0.01, 0.9440000000000001, 0.322, 192.0, 0.0, 0.0, 0.0, 0.0, 0.0, 0.0, 0.0, 0.0, 0.0, 1.696109360782736E9, 0.0, 2023-09-30 16:29:20.782
104.0, 157608.60980851768, -163919.82602117374, -176954.1116898193, -172149.7383296178, 157687.77968737838, -177302.01659226615, 157616.4999743104, -187500.02235174447, 0.01, 0.9440000000000001, 0.322, 192.0, 0.0, 0.0, 0.0, 0.0, 0.0, 0.0, 0.0, 0.0, 0.0, 1.6961093607827468E9, 0.0, 2023-09-30 16:29:20.782
105.0, 157594.32704381074, -164791.2981857417, -176946.6685589157, -172153.00168430826, 157673.74279186045, -177294.46170264028, 157602.32896832575, -187500.02235174447, 0.01, 0.9440000000000001, 0.322, 192.0, 0.0, 0.0, 0.0, 0.0, 0.0, 0.0, 0.0, 0.0, 0.0, 1.696109360782758E9, 0.0, 2023-09-30 16:29:20.782
106.0, 157584.11229659466, -165379.0820096829, -176945.1709920372, -172160.02013206723, 157663.68450685556, -177293.9476125178, 157592.00246238738, -187500.02235174447, 0.01, 0.9440000000000001, 0.322, 192.0, 0.0, 0.0, 0.0, 0.0, 0.0, 0.0, 0.0, 0.0, 0.0, 1.696109360782788E9, 0.0, 2023-09-30 16:29:20.782
107.0, 157580.06663084825, -164808.59843595012, -176942.265265258, -172158.12023378853, 157659.46002715352, -177298.84264455352, 157587.82268617424, -187500.02235174447, 0.01, 0.9440000000000001, 0.322, 192.0, 0.0, 0.0, 0.0, 0.0, 0.0, 0.0, 0.0, 0.0, 0.0, 1.6961093607828004E9, 0.0, 2023-09-30 16:29:20.782
108.0, 157578.36789826964, -163951.207870389, -176936.5655704219, -172142.49636441428, 157657.60483236372, -177292.36063866148, 157586.23571231792, -187500.02235174447, 0.01, 0.9440000000000001, 0.322, 192.0, 0.0, 0.0, 0.0, 0.0, 0.0, 0.0, 0.0, 0.0, 0.0, 1.696109360782814E9, 0.0, 2023-09-30 16:29:20.782
109.0, 157568.26490977584, -164573.77100870264, -176931.1564482637, -172144.35155920405, 157647.54654735883, -177286.23626068071, 157576.02096510184, -187500.02235174447, 0.01, 0.9440000000000001, 0.322, 192.0, 0.0, 0.0, 0.0, 0.0, 0.0, 0.0, 0.0, 0.0, 0.0, 1.696109360782827E9, 0.0, 2023-09-30 16:29:20.782
110.0, 157554.5856421692, -165390.7272685441, -176927.28959647295, -172150.8335650961, 157633.9119832411, -177282.7940920346, 157562.27464226182, -187500.02235174447, 0.01, 0.9440000000000001, 0.322, 192.0, 0.0, 0.0, 0.0, 0.0, 0.0, 0.0, 0.0, 0.0, 0.0, 1.6961093607828405E9, 0.0, 2023-09-30 16:29:20.782
111.0, 157547.65660138807, -164970.84974895118, -176922.77454409297, -172148.6877976284, 157626.9605907155, -177285.67746706933, 157555.41265671406, -187500.02235174447, 0.008, 0.9440000000000001, 0.316, 192.0, 0.0, 64.0, 29.0, 128.0, 9.0, 224.0, 0.0, 0.0, 0.0, 1.696109360782852E9, 0.0, 2023-09-30 16:29:20.782
112.0, 157547.2319182434, -164051.88012741567, -176918.77358183547, -172135.50026839977, 157626.46885233748, -177282.41411237887, 157555.1891392695, -187500.02235174447, 0.008, 0.9440000000000001, 0.316, 192.0, 0.0, 0.0, 0.0, 0.0, 0.0, 0.0, 0.0, 0.0, 0.0, 1.6961093607828639E9, 0.0, 2023-09-30 16:29:20.782
113.0, 157540.41463618455, -164369.6548783368, -176914.0573637554, -172134.06975675462, 157619.6962737675, -177276.31208614257, 157548.34950546618, -187500.02235174447, 0.008, 0.9440000000000001, 0.316, 192.0, 0.0, 0.0, 0.0, 0.0, 0.0, 0.0, 0.0, 0.0, 0.0, 1.6961093607828758E9, 0.0, 2023-09-30 16:29:20.782
114.0, 157522.95792376495, -165368.06259966645, -176907.1059712298, -172139.2330097238, 157602.32896832575, -177269.4277488503, 157530.73633083538, -187500.02235174447, 0.008, 0.9440000000000001, 0.316, 192.0, 0.0, 0.0, 0.0, 0.0, 0.0, 0.0, 0.0, 0.0, 0.0, 1.6961093607828872E9, 0.0, 2023-09-30 16:29:20.782
115.0, 157514.82188878322, -165122.26046589142, -176902.65797408318, -172138.20482947884, 157594.12587811064, -177271.2829436401, 157522.80146155375, -187500.02235174447, 0.008, 0.9440000000000001, 0.316, 192.0, 0.0, 0.0, 0.0, 0.0, 0.0, 0.0, 0.0, 0.0, 0.0, 1.696109360782899E9, 0.0, 2023-09-30 16:29:20.782
116.0, 157516.65473182854, -164203.96139668958, -176901.45097988262, -172129.5323526302, 157595.80225894478, -177272.95932447427, 157524.72371157692, -187500.02235174447, 0.008, 0.9440000000000001, 0.316, 192.0, 0.0, 0.0, 0.0, 0.0, 0.0, 0.0, 0.0, 0.0, 0.0, 1.6961093607829103E9, 0.0, 2023-09-30 16:29:20.782
117.0, 157514.1289847051, -164198.21699836457, -176898.88052927025, -172125.8219630506, 157593.2988635658, -177268.26545813866, 157522.10855747564, -187500.02235174447, 0.008, 0.9440000000000001, 0.316, 192.0, 0.0, 0.0, 0.0, 0.0, 0.0, 0.0, 0.0, 0.0, 0.0, 1.696109360782924E9, 0.0, 2023-09-30 16:29:20.782
118.0, 157496.0240716963, -165299.55450291093, -176891.19152917762, -172131.4322509089, 157575.32806102373, -177260.57645804604, 157503.8695340001, -187500.02235174447, 0.008, 0.9440000000000001, 0.316, 192.0, 0.0, 0.0, 0.0, 0.0, 0.0, 0.0, 0.0, 0.0, 0.0, 1.6961093607829516E9, 0.0, 2023-09-30 16:29:20.782
119.0, 157487.28453961428, -165251.31943837638, -176887.23527040903, -172132.05809975363, 157566.4991219639, -177261.3811208464, 157495.15235366253, -187500.02235174447, 0.008, 0.9440000000000001, 0.316, 192.0, 0.0, 0.0, 0.0, 0.0, 0.0, 0.0, 0.0, 0.0, 0.0, 1.6961093607829797E9, 0.0, 2023-09-30 16:29:20.782
120.0, 157488.08920241467, -164386.28457621153, -176885.98357271953, -172125.66550083942, 157567.1473225531, -177264.66682728135, 157495.9793682074, -187500.02235174447, 0.008, 0.9440000000000001, 0.316, 192.0, 0.0, 0.0, 0.0, 0.0, 0.0, 0.0, 0.0, 0.0, 0.0, 1.696109360782992E9, 0.0, 2023-09-30 16:29:20.782
121.0, 157482.99300467886, -164072.04140091437, -176878.6522005382, -172113.43909662237, 157562.07347656172, -177254.89911495437, 157490.88317047158, -187500.02235174447, 0.006, 0.9420000000000001, 0.312, 192.0, 0.0, 48.0, 29.0, 112.0, 9.0, 192.0, 0.0, 0.0, 0.0, 1.696109361264022E9, 0.0, 2023-09-30 16:29:21.264
122.0, 157466.13978935956, -165181.67140265362, -176871.56669754587, -172119.6305298365, 157545.30966822026, -177247.67950149532, 157473.8734929411, -187500.02235174447, 0.006, 0.9420000000000001, 0.312, 192.0, 0.0, 0.0, 0.0, 0.0, 0.0, 0.0, 0.0, 0.0, 0.0, 1.6961093612641907E9, 0.0, 2023-09-30 16:29:21.264
123.0, 157455.18743457645, -165355.8808989383, -176866.80577597689, -172120.1669717034, 157534.3349616927, -177245.80195496106, 157462.7646759468, -187500.02235174447, 0.006, 0.9420000000000001, 0.312, 192.0, 0.0, 0.0, 0.0, 0.0, 0.0, 0.0, 0.0, 0.0, 0.0, 1.6961093612642205E9, 0.0, 2023-09-30 16:29:21.264
124.0, 157452.08054209716, -164584.4998460412, -176862.8495172083, -172113.4167448779, 157531.16101398005, -177248.0371294066, 157459.81424567872, -187500.02235174447, 0.006, 0.9420000000000001, 0.312, 192.0, 0.0, 0.0, 0.0, 0.0, 0.0, 0.0, 0.0, 0.0, 0.0, 1.6961093612642431E9, 0.0, 2023-09-30 16:29:21.264
125.0, 157450.33710602965, -164010.6635106401, -176857.66391249467, -172100.13980867146, 157529.39522616807, -177240.25872233615, 157458.29432705574, -187500.02235174447, 0.006, 0.9420000000000001, 0.312, 192.0, 0.0, 0.0, 0.0, 0.0, 0.0, 0.0, 0.0, 0.0, 0.0, 1.6961093612642665E9, 0.0, 2023-09-30 16:29:21.264
126.0, 157438.1107018126, -165027.89140080113, -176853.7970607039, -172108.43230586438, 157517.30293241775, -177236.05659437855, 157445.88910888304, -187500.02235174447, 0.006, 0.9420000000000001, 0.312, 192.0, 0.0, 0.0, 0.0, 0.0, 0.0, 0.0, 0.0, 0.0, 0.0, 1.696109361264289E9, 0.0, 2023-09-30 16:29:21.264
127.0, 157427.98536157433, -165447.16542329377, -176851.3383688138, -172112.90265475545, 157507.1328886906, -177235.11782111143, 157435.7637686448, -187500.02235174447, 0.006, 0.9420000000000001, 0.312, 192.0, 0.0, 0.0, 0.0, 0.0, 0.0, 0.0, 0.0, 0.0, 0.0, 1.6961093612643125E9, 0.0, 2023-09-30 16:29:21.264
128.0, 157423.3585504721, -164793.71217414286, -176847.20329608957, -172108.0746779531, 157502.43902235499, -177237.97884440172, 157431.3157714982, -187500.02235174447, 0.006, 0.9420000000000001, 0.312, 192.0, 0.0, 0.0, 0.0, 0.0, 0.0, 0.0, 0.0, 0.0, 0.0, 1.6961093612643385E9, 0.0, 2023-09-30 16:29:21.264
129.0, 157424.4537859504, -164029.4166242381, -176844.02934837693, -172095.22242489128, 157503.55660957773, -177232.90499841035, 157432.63452442104, -187500.02235174447, 0.006, 0.9420000000000001, 0.312, 192.0, 0.0, 0.0, 0.0, 0.0, 0.0, 0.0, 0.0, 0.0, 0.0, 1.6961093612643628E9, 0.0, 2023-09-30 16:29:21.264
130.0, 157413.8590590786, -164849.07744515868, -176839.71546169705, -172100.29627088265, 157493.0289379393, -177227.65233846335, 157421.9503905714, -187500.02235174447, 0.006, 0.9420000000000001, 0.312, 192.0, 0.0, 0.0, 0.0, 0.0, 0.0, 0.0, 0.0, 0.0, 0.0, 1.696109361264386E9, 0.0, 2023-09-30 16:29:21.264
131.0, 157402.45966940638, -165508.92329322378, -176837.10030759577, -172106.1747796744, 157481.5624930337, -177225.30540529554, 157410.3498351991, -187500.02235174447, 0.004, 0.934, 0.31, 192.0, 0.0, 32.0, 29.0, 48.0, 9.0, 176.0, 0.0, 0.0, 0.0, 1.6961093612644072E9, 0.0, 2023-09-30 16:29:21.264
132.0, 157398.5481141267, -164991.12278117213, -176834.68631919462, -172104.74426802926, 157477.5168272873, -177229.99927163115, 157406.43827991944, -187500.02235174447, 0.004, 0.934, 0.31, 192.0, 0.0, 0.0, 0.0, 0.0, 0.0, 0.0, 0.0, 0.0, 0.0, 1.6961093612644691E9, 0.0, 2023-09-30 16:29:21.264
133.0, 157396.08942223663, -164110.35229091076, -176828.1372580692, -172087.6675352654, 157475.08048714168, -177222.3773267719, 157404.13605024054, -187500.02235174447, 0.004, 0.934, 0.31, 192.0, 0.0, 0.0, 0.0, 0.0, 0.0, 0.0, 0.0, 0.0, 0.0, 1.696109361264491E9, 0.0, 2023-09-30 16:29:21.264
134.0, 157387.32753841014, -164657.0759602876, -176823.21987428903, -172088.38279108796, 157466.3633068041, -177215.7835621576, 157395.30711118068, -187500.02235174447, 0.004, 0.934, 0.31, 192.0, 0.0, 0.0, 0.0, 0.0, 0.0, 0.0, 0.0, 0.0, 0.0, 1.6961093612645304E9, 0.0, 2023-09-30 16:29:21.264
135.0, 157372.88831149202, -165534.5160406251, -176818.5483596979, -172093.76956150171, 157452.0134868638, -177210.55325395506, 157380.71142205136, -187500.02235174447, 0.004, 0.934, 0.31, 192.0, 0.0, 0.0, 0.0, 0.0, 0.0, 0.0, 0.0, 0.0, 0.0, 1.6961093612645595E9, 0.0, 2023-09-30 16:29:21.264
136.0, 157366.22749164433, -165172.4401321936, -176814.45799046254, -172091.91436671192, 157445.2632600383, -177212.81078014502, 157374.11765743705, -187500.02235174447, 0.004, 0.934, 0.31, 192.0, 0.0, 0.0, 0.0, 0.0, 0.0, 0.0, 0.0, 0.0, 0.0, 1.696109361264582E9, 0.0, 2023-09-30 16:29:21.264
137.0, 157366.38395385552, -164246.6755803437, -176810.50173169398, -172078.39156131644, 157445.2632600383, -177209.4803702212, 157374.43058185943, -187500.02235174447, 0.004, 0.934, 0.31, 192.0, 0.0, 0.0, 0.0, 0.0, 0.0, 0.0, 0.0, 0.0, 0.0, 1.6961093612646115E9, 0.0, 2023-09-30 16:29:21.264
138.0, 157359.0525816742, -164477.3679348669, -176804.46676069102, -172073.60828800302, 157437.99894309032, -177200.9196520948, 157367.07685793363, -187500.02235174447, 0.004, 0.934, 0.31, 192.0, 0.0, 0.0, 0.0, 0.0, 0.0, 0.0, 0.0, 0.0, 0.0, 1.6961093612646532E9, 0.0, 2023-09-30 16:29:21.264
139.0, 157346.2450321013, -165515.315892138, -176801.6727926341, -172082.45957880732, 157425.3031522397, -177197.34337298197, 157354.11284614957, -187500.02235174447, 0.004, 0.934, 0.31, 192.0, 0.0, 0.0, 0.0, 0.0, 0.0, 0.0, 0.0, 0.0, 0.0, 1.6961093612646909E9, 0.0, 2023-09-30 16:29:21.264
140.0, 157339.51715702025, -165331.09281433737, -176798.6776588771, -172082.5266340407, 157418.53057366976, -177199.2656230051, 157347.3849710685, -187500.02235174447, 0.004, 0.934, 0.31, 192.0, 0.0, 0.0, 0.0, 0.0, 0.0, 0.0, 0.0, 0.0, 0.0, 1.6961093612647333E9, 0.0, 2023-09-30 16:29:21.264
141.0, 157337.5278517637, -164422.7626231626, -176793.60381288576, -172069.62967748998, 157416.51891666878, -177196.49400669266, 157345.5297762787, -187500.02235174447, 0.004, 0.936, 0.312, 192.0, 0.0, 32.0, 29.0, 64.0, 9.0, 192.0, 0.0, 0.0, 0.0, 1.6961093612647712E9, 0.0, 2023-09-30 16:29:21.264
142.0, 157331.44817727187, -164330.67343600673, -176786.5183098934, -172059.5043372517, 157410.48394566585, -177186.30161122105, 157339.49480527578, -187500.02235174447, 0.004, 0.936, 0.312, 192.0, 0.0, 0.0, 0.0, 0.0, 0.0, 0.0, 0.0, 0.0, 0.0, 1.6961093612648077E9, 0.0, 2023-09-30 16:29:21.264
143.0, 157315.80195615315, -165445.93607734874, -176780.70685633505, -172066.09810186602, 157394.83772454713, -177179.46197741773, 157323.64741845697, -187500.02235174447, 0.004, 0.936, 0.312, 192.0, 0.0, 0.0, 0.0, 0.0, 0.0, 0.0, 0.0, 0.0, 0.0, 1.696109361264848E9, 0.0, 2023-09-30 16:29:21.264
144.0, 157308.135307805, -165464.5103769911, -176778.0246470004, -172067.28274432218, 157387.01461398776, -177180.0207710291, 157315.89136313097, -187500.02235174447, 0.004, 0.936, 0.312, 192.0, 0.0, 0.0, 0.0, 0.0, 0.0, 0.0, 0.0, 0.0, 0.0, 1.6961093612648904E9, 0.0, 2023-09-30 16:29:21.264
145.0, 157305.3413397481, -164623.4589366268, -176773.21902194252, -172056.93388663937, 157384.24299767532, -177179.21610822872, 157313.38796775197, -187500.02235174447, 0.004, 0.936, 0.312, 192.0, 0.0, 0.0, 0.0, 0.0, 0.0, 0.0, 0.0, 0.0, 0.0, 1.6961093612649362E9, 0.0, 2023-09-30 16:29:21.264
146.0, 157303.6873106584, -164229.77766153548, -176768.54750735135, -172045.37803475597, 157382.4995616078, -177171.08007324697, 157311.80099389565, -187500.02235174447, 0.004, 0.936, 0.312, 192.0, 0.0, 0.0, 0.0, 0.0, 0.0, 0.0, 0.0, 0.0, 0.0, 1.6961093612649748E9, 0.0, 2023-09-30 16:29:21.264
147.0, 157289.65041514044, -165322.68855842217, -176763.47366136, -172052.24002030375, 157368.61912830104, -177164.8215847995, 157297.629987911, -187500.02235174447, 0.004, 0.936, 0.312, 192.0, 0.0, 0.0, 0.0, 0.0, 0.0, 0.0, 0.0, 0.0, 0.0, 1.6961093612650006E9, 0.0, 2023-09-30 16:29:21.265
148.0, 157280.84382782507, -165569.69768639776, -176760.99261772545, -172054.83282266057, 157359.76783749674, -177164.15103246583, 157288.68929012888, -187500.02235174447, 0.004, 0.936, 0.312, 192.0, 0.0, 0.0, 0.0, 0.0, 0.0, 0.0, 0.0, 0.0, 0.0, 1.6961093612650385E9, 0.0, 2023-09-30 16:29:21.265
149.0, 157275.0100225222, -164831.82189843917, -176754.6223705557, -172045.22157254477, 157353.77756998272, -177163.1675557098, 157282.98959529278, -187500.02235174447, 0.004, 0.936, 0.312, 192.0, 0.0, 0.0, 0.0, 0.0, 0.0, 0.0, 0.0, 0.0, 0.0, 1.6961093612650812E9, 0.0, 2023-09-30 16:29:21.265
150.0, 157271.9254817874, -164193.23255935105, -176747.60392279673, -172028.50246769222, 157350.648325759, -177152.79634628253, 157279.9721097913, -187500.02235174447, 0.004, 0.936, 0.312, 192.0, 0.0, 0.0, 0.0, 0.0, 0.0, 0.0, 0.0, 0.0, 0.0, 1.696109361265116E9, 0.0, 2023-09-30 16:29:21.265
151.0, 157259.36380140352, -165159.16319598714, -176742.4183180831, -172033.64336891694, 157338.19840409738, -177146.33669213497, 157267.25396719624, -187500.02235174447, 0.004, 0.936, 0.312, 192.0, 0.0, 0.0, 0.0, 0.0, 0.0, 0.0, 0.0, 0.0, 0.0, 1.6961093612651508E9, 0.0, 2023-09-30 16:29:21.265
152.0, 157246.48919659725, -165645.60421056798, -176737.0762511583, -172034.8503631175, 157325.34615103557, -177141.37460486588, 157254.33465890106, -187500.02235174447, 0.002, 0.932, 0.306, 192.0, 0.0, 16.0, 29.0, 32.0, 9.0, 144.0, 0.0, 0.0, 0.0, 1.696109361265176E9, 0.0, 2023-09-30 16:29:21.265
153.0, 157244.49989134073, -165024.96332227747, -176735.39987032412, -172032.10109854952, 157323.33449403459, -177145.7108432902, 157252.59122283355, -187500.02235174447, 0.002, 0.932, 0.306, 192.0, 0.0, 0.0, 0.0, 0.0, 0.0, 0.0, 0.0, 0.0, 0.0, 1.696109361265204E9, 0.0, 2023-09-30 16:29:21.265
154.0, 157246.39978961943, -164212.14213516025, -176732.65060575612, -172018.28772047613, 157325.12263359103, -177140.4134798543, 157254.60287983454, -187500.02235174447, 0.002, 0.932, 0.306, 192.0, 0.0, 0.0, 0.0, 0.0, 0.0, 0.0, 0.0, 0.0, 0.0, 1.6961093612652268E9, 0.0, 2023-09-30 16:29:21.265
155.0, 157236.02858019216, -164956.65639122206, -176727.44264929806, -172020.50054317722, 157314.84083114157, -177133.2609216286, 157244.05285645163, -187500.02235174447, 0.002, 0.932, 0.306, 192.0, 0.0, 0.0, 0.0, 0.0, 0.0, 0.0, 0.0, 0.0, 0.0, 1.69610936126526E9, 0.0, 2023-09-30 16:29:21.265
156.0, 157223.57865853058, -165680.53998715163, -176723.68755622956, -172025.08265079054, 157302.34620599105, -177128.92468320427, 157231.4688243233, -187500.02235174447, 0.002, 0.932, 0.306, 192.0, 0.0, 0.0, 0.0, 0.0, 0.0, 0.0, 0.0, 0.0, 0.0, 1.6961093612652895E9, 0.0, 2023-09-30 16:29:21.265
157.0, 157218.77303347268, -165203.73257443102, -176720.5136085169, -172022.31103447807, 157297.49587744425, -177131.62924428337, 157226.6631992654, -187500.02235174447, 0.002, 0.932, 0.306, 192.0, 0.0, 0.0, 0.0, 0.0, 0.0, 0.0, 0.0, 0.0, 0.0, 1.6961093612653165E9, 0.0, 2023-09-30 16:29:21.265
158.0, 157221.63405676294, -164299.80567691394, -176718.68076547157, -172009.57054013855, 157300.20043852334, -177128.6564622708, 157229.68068476685, -187500.02235174447, 0.002, 0.932, 0.306, 192.0, 0.0, 0.0, 0.0, 0.0, 0.0, 0.0, 0.0, 0.0, 0.0, 1.696109361265344E9, 0.0, 2023-09-30 16:29:21.265
159.0, 157213.87800143697, -164759.22343244834, -176713.71867820248, -172008.1623802379, 157292.44438319738, -177120.81099996698, 157221.9022776964, -187500.02235174447, 0.002, 0.932, 0.306, 192.0, 0.0, 0.0, 0.0, 0.0, 0.0, 0.0, 0.0, 0.0, 0.0, 1.6961093612654188E9, 0.0, 2023-09-30 16:29:21.265
160.0, 157198.67881520736, -165686.64201338793, -176707.95192813303, -172012.52097040665, 157277.33460394558, -177113.74784871913, 157206.4572222778, -187500.02235174447, 0.002, 0.932, 0.306, 192.0, 0.0, 0.0, 0.0, 0.0, 0.0, 0.0, 0.0, 0.0, 0.0, 1.6961093612654803E9, 0.0, 2023-09-30 16:29:21.265
161.0, 157189.82752440305, -165374.49990206957, -176701.64873619663, -172007.89415930441, 157268.371554419, -177112.40674405178, 157197.67298670686, -187500.02235174447, 0.002, 0.932, 0.306, 192.0, 0.0, 0.0, 0.0, 0.0, 0.0, 0.0, 0.0, 0.0, 0.0, 1.69610936126553E9, 0.0, 2023-09-30 16:29:21.265
162.0, 157189.71576568077, -164444.48851877314, -176697.44660823903, -171993.9019672754, 157268.30449918564, -177108.65165098332, 157197.87415240696, -187500.02235174447, 0.006, 0.9400000000000001, 0.31, 192.0, 0.0, 48.0, 29.0, 96.0, 9.0, 176.0, 0.0, 0.0, 0.0, 1.6961093612655804E9, 0.0, 2023-09-30 16:29:21.265
163.0, 157182.96553885526, -164584.8574739525, -176690.89754711362, -171986.5482433496, 157261.6213275935, -177098.61571772286, 157191.03451860364, -187500.02235174447, 0.006, 0.9400000000000001, 0.31, 192.0, 0.0, 0.0, 0.0, 0.0, 0.0, 0.0, 0.0, 0.0, 0.0, 1.6961093612656257E9, 0.0, 2023-09-30 16:29:21.265
164.0, 157168.61571891495, -165650.96862923726, -176686.09192205573, -171993.1420079639, 157247.22680416427, -177092.3572292754, 157176.48353296323, -187500.02235174447, 0.006, 0.9400000000000001, 0.31, 192.0, 0.0, 0.0, 0.0, 0.0, 0.0, 0.0, 0.0, 0.0, 0.0, 1.6961093612656474E9, 0.0, 2023-09-30 16:29:21.265
165.0, 157162.06665778955, -165527.6093515884, -176683.52147144335, -171993.03024924162, 157240.54363257214, -177093.22894730914, 157169.88976834892, -187500.02235174447, 0.006, 0.9400000000000001, 0.31, 192.0, 0.0, 0.0, 0.0, 0.0, 0.0, 0.0, 0.0, 0.0, 0.0, 1.6961093612656624E9, 0.0, 2023-09-30 16:29:21.265
166.0, 157162.2454717452, -164632.28787568666, -176680.4145789641, -171982.2343566697, 157240.6106878055, -177092.5583949755, 157170.18034102683, -187500.02235174447, 0.006, 0.9400000000000001, 0.31, 192.0, 0.0, 0.0, 0.0, 0.0, 0.0, 0.0, 0.0, 0.0, 0.0, 1.6961093612656765E9, 0.0, 2023-09-30 16:29:21.265
167.0, 157156.23285248672, -164455.53028053406, -176672.703227127, -171969.5385658191, 157234.75453075822, -177080.66726692527, 157164.3912392129, -187500.02235174447, 0.006, 0.9400000000000001, 0.31, 192.0, 0.0, 0.0, 0.0, 0.0, 0.0, 0.0, 0.0, 0.0, 0.0, 1.6961093612656908E9, 0.0, 2023-09-30 16:29:21.265
168.0, 157141.70421859078, -165572.08932305448, -176667.33880845772, -171976.10997868897, 157220.18119337337, -177073.78292963302, 157149.57203263903, -187500.02235174447, 0.006, 0.9400000000000001, 0.31, 192.0, 0.0, 0.0, 0.0, 0.0, 0.0, 0.0, 0.0, 0.0, 0.0, 1.696109361265705E9, 0.0, 2023-09-30 16:29:21.265
169.0, 157135.51278537666, -165659.596402597, -176666.3553317017, -171978.6357258124, 157214.03446364816, -177074.7440546446, 157143.42530291382, -187500.02235174447, 0.006, 0.9400000000000001, 0.31, 192.0, 0.0, 0.0, 0.0, 0.0, 0.0, 0.0, 0.0, 0.0, 0.0, 1.696109361265718E9, 0.0, 2023-09-30 16:29:21.265
170.0, 157132.65176208637, -164842.9977706668, -176661.3485409437, -171968.33157161853, 157211.08403338006, -177073.80528137748, 157140.72074183475, -187500.02235174447, 0.006, 0.9400000000000001, 0.31, 192.0, 0.0, 0.0, 0.0, 0.0, 0.0, 0.0, 0.0, 0.0, 0.0, 1.6961093612657306E9, 0.0, 2023-09-30 16:29:21.265
171.0, 157128.36022715096, -164380.47312265314, -176653.6371891066, -171952.35007433296, 157206.7477949557, -177061.8470980939, 157136.4292068993, -187500.02235174447, 0.006, 0.9400000000000001, 0.31, 192.0, 0.0, 0.0, 0.0, 0.0, 0.0, 0.0, 0.0, 0.0, 0.0, 1.6961093612657433E9, 0.0, 2023-09-30 16:29:21.265
172.0, 157112.69165428777, -165442.78448138054, -176646.10465122518, -171956.30633310156, 157191.12392558146, -177052.8840485673, 157120.5371165916, -187500.02235174447, 0.004, 0.9380000000000001, 0.314, 192.0, 0.0, 32.0, 29.0, 80.0, 9.0, 208.0, 0.0, 0.0, 0.0, 1.6961093612657657E9, 0.0, 2023-09-30 16:29:21.265
173.0, 157103.57214255002, -165765.0742846816, -176643.60125584618, -171958.74267324718, 157181.93735861033, -177051.02885377753, 157111.30584613155, -187500.02235174447, 0.004, 0.9380000000000001, 0.314, 192.0, 0.0, 0.0, 0.0, 0.0, 0.0, 0.0, 0.0, 0.0, 0.0, 1.696109361265787E9, 0.0, 2023-09-30 16:29:21.265
174.0, 157100.06291867053, -165057.39570348212, -176639.42147963305, -171951.65717025485, 157178.53989345313, -177052.2358479781, 157108.10954667444, -187500.02235174447, 0.004, 0.9380000000000001, 0.314, 192.0, 0.0, 0.0, 0.0, 0.0, 0.0, 0.0, 0.0, 0.0, 0.0, 1.6961093612658148E9, 0.0, 2023-09-30 16:29:21.265
175.0, 157098.9900349367, -164370.52659637053, -176633.90059875257, -171935.76507994713, 157177.46700971926, -177043.02692926253, 157107.2378286407, -187500.02235174447, 0.004, 0.9380000000000001, 0.314, 192.0, 0.0, 0.0, 0.0, 0.0, 0.0, 0.0, 0.0, 0.0, 0.0, 1.6961093612658324E9, 0.0, 2023-09-30 16:29:21.265
176.0, 157088.26119759813, -165277.269813689, -176629.54200858378, -171940.81657419403, 157166.73817238072, -177037.0366617485, 157096.2407703687, -187500.02235174447, 0.004, 0.9380000000000001, 0.314, 192.0, 0.0, 0.0, 0.0, 0.0, 0.0, 0.0, 0.0, 0.0, 0.0, 1.6961093612658467E9, 0.0, 2023-09-30 16:29:21.265
177.0, 157076.63829048138, -165840.48907047382, -176625.71986028194, -171943.85641143995, 157155.11526526397, -177032.8345337909, 157084.573159763, -187500.02235174447, 0.004, 0.9380000000000001, 0.314, 192.0, 0.0, 0.0, 0.0, 0.0, 0.0, 0.0, 0.0, 0.0, 0.0, 1.6961093612658594E9, 0.0, 2023-09-30 16:29:21.265
178.0, 157071.6314997234, -165259.32136289138, -176621.16010441305, -171938.60375149295, 157149.9967157837, -177034.24269369157, 157079.70047947176, -187500.02235174447, 0.004, 0.9380000000000001, 0.314, 192.0, 0.0, 0.0, 0.0, 0.0, 0.0, 0.0, 0.0, 0.0, 0.0, 1.696109361265873E9, 0.0, 2023-09-30 16:29:21.265
179.0, 157072.43616252378, -164421.7567946621, -176617.22619738893, -171923.40456526336, 157150.71197160627, -177027.67128082173, 157080.63925273888, -187500.02235174447, 0.004, 0.9380000000000001, 0.314, 192.0, 0.0, 0.0, 0.0, 0.0, 0.0, 0.0, 0.0, 0.0, 0.0, 1.6961093612658868E9, 0.0, 2023-09-30 16:29:21.265
180.0, 157064.50129324215, -165086.22945382947, -176613.51580780934, -171926.01971936462, 157142.77710232462, -177021.9939377301, 157072.59262473497, -187500.02235174447, 0.004, 0.9380000000000001, 0.314, 192.0, 0.0, 0.0, 0.0, 0.0, 0.0, 0.0, 0.0, 0.0, 0.0, 1.6961093612659004E9, 0.0, 2023-09-30 16:29:21.265
181.0, 157050.66556342432, -165879.73873373732, -176608.8889967071, -171930.22184732222, 157129.00842774016, -177016.45070510518, 157058.53337747257, -187500.02235174447, 0.004, 0.9380000000000001, 0.314, 192.0, 0.0, 0.0, 0.0, 0.0, 0.0, 0.0, 0.0, 0.0, 0.0, 1.6961093612659163E9, 0.0, 2023-09-30 16:29:21.265
182.0, 157044.11650229892, -165444.7514348926, -176604.1280751381, -171926.2879402981, 157122.50407010366, -177017.41183011673, 157052.14077855836, -187500.02235174447, 0.002, 0.9420000000000001, 0.318, 192.0, 0.0, 16.0, 29.0, 112.0, 9.0, 240.0, 0.0, 0.0, 0.0, 1.6961093612659287E9, 0.0, 2023-09-30 16:29:21.265
183.0, 157043.53535694306, -164532.91201983835, -176599.0318774023, -171910.64171917937, 157121.94527649228, -177011.35450736934, 157051.80550239154, -187500.02235174447, 0.002, 0.9420000000000001, 0.318, 192.0, 0.0, 0.0, 0.0, 0.0, 0.0, 0.0, 0.0, 0.0, 0.0, 1.6961093612659423E9, 0.0, 2023-09-30 16:29:21.265
184.0, 157036.6733713953, -164897.6701376045, -176593.95803141096, -171908.071268567, 157114.97153222223, -177003.55374855446, 157044.69764765474, -187500.02235174447, 0.002, 0.9420000000000001, 0.318, 192.0, 0.0, 0.0, 0.0, 0.0, 0.0, 0.0, 0.0, 0.0, 0.0, 1.6961093612659588E9, 0.0, 2023-09-30 16:29:21.265
185.0, 157021.02715027658, -165873.12261737857, -176587.76659819682, -171912.7204314137, 157099.21355238123, -176996.40119032876, 157028.78320560255, -187500.02235174447, 0.002, 0.9420000000000001, 0.318, 192.0, 0.0, 0.0, 0.0, 0.0, 0.0, 0.0, 0.0, 0.0, 0.0, 1.696109361265974E9, 0.0, 2023-09-30 16:29:21.265
186.0, 157016.28858045203, -165608.65677698338, -176585.95610689596, -171912.7204314137, 157094.56438953453, -176999.30691710796, 157024.24580147813, -187500.02235174447, 0.002, 0.9420000000000001, 0.318, 192.0, 0.0, 0.0, 0.0, 0.0, 0.0, 0.0, 0.0, 0.0, 0.0, 1.6961093612659888E9, 0.0, 2023-09-30 16:29:21.265
187.0, 157017.33911244143, -164687.89901589145, -176583.2738975613, -171900.73989638567, 157095.5255145461, -176997.4740740626, 157025.49749916763, -187500.02235174447, 0.002, 0.9420000000000001, 0.318, 192.0, 0.0, 0.0, 0.0, 0.0, 0.0, 0.0, 0.0, 0.0, 0.0, 1.6961093612660022E9, 0.0, 2023-09-30 16:29:21.266
188.0, 157011.84058330543, -164730.0320541897, -176577.46244400294, -171893.05089629305, 157090.16109587683, -176988.2204518581, 157020.08837700944, -187500.02235174447, 0.002, 0.9420000000000001, 0.318, 192.0, 0.0, 0.0, 0.0, 0.0, 0.0, 0.0, 0.0, 0.0, 0.0, 1.6961093612660136E9, 0.0, 2023-09-30 16:29:21.266
189.0, 156996.97667324267, -165825.37929122202, -176572.43330150048, -171899.93523358527, 157075.2748340696, -176981.93961166617, 157004.93389426876, -187500.02235174447, 0.002, 0.9420000000000001, 0.318, 192.0, 0.0, 0.0, 0.0, 0.0, 0.0, 0.0, 0.0, 0.0, 0.0, 1.6961093612660272E9, 0.0, 2023-09-30 16:29:21.266
190.0, 156989.01945221657, -165754.88188921, -176568.5217462208, -171898.90705334034, 157067.2282060657, -176981.29141107696, 156996.97667324267, -187500.02235174447, 0.002, 0.9420000000000001, 0.318, 192.0, 0.0, 0.0, 0.0, 0.0, 0.0, 0.0, 0.0, 0.0, 0.0, 1.6961093612660391E9, 0.0, 2023-09-30 16:29:21.266
191.0, 156989.77941152806, -164881.59923334114, -176566.5771444532, -171889.9216520693, 157068.1222758439, -176982.09607387736, 156998.07190872097, -187500.02235174447, 0.002, 0.9420000000000001, 0.318, 192.0, 0.0, 0.0, 0.0, 0.0, 0.0, 0.0, 0.0, 0.0, 0.0, 1.6961093612660503E9, 0.0, 2023-09-30 16:29:21.266
192.0, 156987.9018649938, -164610.49492484273, -176562.17385079552, -171879.66220136432, 157066.2223775652, -176973.66946621772, 156996.21671393118, -187500.02235174447, 0.002, 0.9420000000000001, 0.318, 192.0, 0.0, 0.0, 0.0, 0.0, 0.0, 0.0, 0.0, 0.0, 0.0, 1.696109361266062E9, 0.0, 2023-09-30 16:29:21.266
193.0, 156972.054478175, -165724.6623307064, -176555.40127222554, -171885.11602701142, 157050.4196942353, -176965.55578298043, 156980.07875443445, -187500.02235174447, 0.004, 0.9440000000000001, 0.32, 192.0, 0.0, 32.0, 29.0, 128.0, 10.0, 0.0, 0.0, 0.0, 0.0, 1.6961093612660751E9, 0.0, 2023-09-30 16:29:21.266
194.0, 156961.61621351435, -165870.48511153282, -176550.30507448973, -171883.95373629974, 157039.84731910794, -176962.20302131213, 156969.61813802936, -187500.02235174447, 0.004, 0.9440000000000001, 0.32, 192.0, 0.0, 0.0, 0.0, 0.0, 0.0, 0.0, 0.0, 0.0, 0.0, 1.6961093612660885E9, 0.0, 2023-09-30 16:29:21.266
195.0, 156958.03993440152, -165084.8659974177, -176545.0300627983, -171874.00721001712, 157036.18163301726, -176961.35365502283, 156966.1536176388, -187500.02235174447, 0.004, 0.9440000000000001, 0.32, 192.0, 0.0, 0.0, 0.0, 0.0, 0.0, 0.0, 0.0, 0.0, 0.0, 1.6961093612661011E9, 0.0, 2023-09-30 16:29:21.266
196.0, 156956.8105884565, -164546.3901217449, -176539.8668098291, -171859.8585557769, 157034.99699056114, -176952.2117915406, 156965.08073390494, -187500.02235174447, 0.004, 0.9440000000000001, 0.32, 192.0, 0.0, 0.0, 0.0, 0.0, 0.0, 0.0, 0.0, 0.0, 0.0, 1.6961093612661147E9, 0.0, 2023-09-30 16:29:21.266
197.0, 156946.6405447293, -165578.66073592435, -176537.74339410584, -171868.79925355903, 157024.9610573007, -176948.54610544993, 156954.77657971103, -187500.02235174447, 0.004, 0.9440000000000001, 0.32, 192.0, 0.0, 0.0, 0.0, 0.0, 0.0, 0.0, 0.0, 0.0, 0.0, 1.6961093612661269E9, 0.0, 2023-09-30 16:29:21.266
198.0, 156937.3422190359, -165963.51307195582, -176535.15059174903, -171871.3697041714, 157015.5062693961, -176946.04271007093, 156945.36649529537, -187500.02235174447, 0.004, 0.9440000000000001, 0.32, 192.0, 0.0, 0.0, 0.0, 0.0, 0.0, 0.0, 0.0, 0.0, 0.0, 1.6961093612661397E9, 0.0, 2023-09-30 16:29:21.266
199.0, 156932.55894572247, -165292.58075864086, -176529.85322831312, -171863.5689453565, 157010.7676995716, -176945.95330309312, 156940.6949807042, -187500.02235174447, 0.004, 0.9440000000000001, 0.32, 192.0, 0.0, 0.0, 0.0, 0.0, 0.0, 0.0, 0.0, 0.0, 0.0, 1.696109361266153E9, 0.0, 2023-09-30 16:29:21.266
200.0, 156932.60364921138, -164551.15104331388, -176525.04760325523, -171847.6097998154, 157010.67829259377, -176937.39258496673, 156940.8961464043, -187500.02235174447, 0.004, 0.9440000000000001, 0.32, 192.0, 0.0, 0.0, 0.0, 0.0, 0.0, 0.0, 0.0, 0.0, 0.0, 1.6961093612661653E9, 0.0, 2023-09-30 16:29:21.266
201.0, 156921.539535706, -165397.6339575808, -176519.63848109706, -171850.98491322817, 156999.7482895551, -176930.17297150768, 156929.65321894328, -187500.02235174447, 0.004, 0.9440000000000001, 0.32, 192.0, 0.0, 0.0, 0.0, 0.0, 0.0, 0.0, 0.0, 0.0, 0.0, 1.6961093612661767E9, 0.0, 2023-09-30 16:29:21.266
202.0, 156908.41906171074, -166024.80155525228, -176514.49757987235, -171852.68364580677, 156986.51605683757, -176924.1156487603, 156916.26452401455, -187500.02235174447, 0.004, 0.9440000000000001, 0.32, 192.0, 0.0, 0.0, 0.0, 0.0, 0.0, 0.0, 0.0, 0.0, 0.0, 1.6961093612661881E9, 0.0, 2023-09-30 16:29:21.266
203.0, 156906.00507330956, -165482.43647604424, -176512.88825427156, -171850.13554693887, 156984.05736494748, -176927.89309357325, 156914.14110829128, -187500.02235174447, 0.004, 0.9400000000000001, 0.316, 192.0, 0.0, 32.0, 29.0, 96.0, 9.0, 224.0, 0.0, 0.0, 0.0, 1.6961093612662003E9, 0.0, 2023-09-30 16:29:21.266
204.0, 156905.24511399807, -164609.08676494204, -176507.18855943545, -171832.7011862637, 156983.36446086937, -176919.57824463586, 156913.67172165774, -187500.02235174447, 0.004, 0.9400000000000001, 0.316, 192.0, 0.0, 0.0, 0.0, 0.0, 0.0, 0.0, 0.0, 0.0, 0.0, 1.6961093612662125E9, 0.0, 2023-09-30 16:29:21.266
205.0, 156892.4375644252, -165201.56445521885, -176497.86788199758, -171828.74492749514, 156970.55691129647, -176907.66476484117, 156900.66300638474, -187500.02235174447, 0.004, 0.9400000000000001, 0.316, 192.0, 0.0, 0.0, 0.0, 0.0, 0.0, 0.0, 0.0, 0.0, 0.0, 1.696109361266224E9, 0.0, 2023-09-30 16:29:21.266
206.0, 156879.1382764743, -166046.192174696, -176493.39753310653, -171833.304683364, 156957.1011611344, -176901.92036651616, 156887.07314575592, -187500.02235174447, 0.004, 0.9400000000000001, 0.316, 192.0, 0.0, 0.0, 0.0, 0.0, 0.0, 0.0, 0.0, 0.0, 0.0, 1.696109361266235E9, 0.0, 2023-09-30 16:29:21.266
207.0, 156874.26559618302, -165663.21738519878, -176490.38004760505, -171830.84599147394, 156952.22848084313, -176903.84261653933, 156882.2228172091, -187500.02235174447, 0.004, 0.9400000000000001, 0.316, 192.0, 0.0, 0.0, 0.0, 0.0, 0.0, 0.0, 0.0, 0.0, 0.0, 1.6961093612662463E9, 0.0, 2023-09-30 16:29:21.266
208.0, 156876.6795845842, -164735.0835484366, -176488.27898362625, -171817.72551747866, 156954.73187622213, -176900.84748278232, 156884.97208177712, -187500.02235174447, 0.004, 0.9400000000000001, 0.316, 192.0, 0.0, 0.0, 0.0, 0.0, 0.0, 0.0, 0.0, 0.0, 0.0, 1.6961093612662573E9, 0.0, 2023-09-30 16:29:21.266
209.0, 156869.9740612476, -165011.82049653775, -176482.46753006786, -171813.14340986533, 156948.0040011411, -176891.97384023355, 156878.19950320717, -187500.02235174447, 0.004, 0.9400000000000001, 0.316, 192.0, 0.0, 0.0, 0.0, 0.0, 0.0, 0.0, 0.0, 0.0, 0.0, 1.6961093612662685E9, 0.0, 2023-09-30 16:29:21.266
210.0, 156855.1772064182, -166024.6450930411, -176476.99135267633, -171818.44077330123, 156933.05068410048, -176885.04479945241, 156863.04502046647, -187500.02235174447, 0.004, 0.9400000000000001, 0.316, 192.0, 0.0, 0.0, 0.0, 0.0, 0.0, 0.0, 0.0, 0.0, 0.0, 1.6961093612662807E9, 0.0, 2023-09-30 16:29:21.266
211.0, 156849.70102902665, -165816.70681437338, -176474.53266078624, -171817.85962794538, 156927.59685845338, -176886.54236633092, 156857.5688430749, -187500.02235174447, 0.004, 0.9400000000000001, 0.316, 192.0, 0.0, 0.0, 0.0, 0.0, 0.0, 0.0, 0.0, 0.0, 0.0, 1.6961093612662933E9, 0.0, 2023-09-30 16:29:21.266
212.0, 156849.99160170456, -164900.1735329835, -176471.17989911794, -171805.18618883923, 156927.97683810914, -176884.1507296742, 156858.261747153, -187500.02235174447, 0.004, 0.9400000000000001, 0.316, 192.0, 0.0, 0.0, 0.0, 0.0, 0.0, 0.0, 0.0, 0.0, 0.0, 1.6961093612663054E9, 0.0, 2023-09-30 16:29:21.266
213.0, 156846.61648829182, -164857.5711080517, -176466.73190197133, -171797.63129921333, 156924.46761422965, -176875.8582324813, 156854.88663374027, -187500.02235174447, 0.004, 0.9400000000000001, 0.316, 192.0, 0.0, 32.0, 29.0, 96.0, 9.0, 224.0, 0.0, 0.0, 0.0, 1.696109361266317E9, 0.0, 2023-09-30 16:29:21.266
214.0, 156832.93722068515, -165964.04951382274, -176462.52977401373, -171805.34265105042, 156910.76599487854, -176870.15853764518, 156840.71562775562, -187500.02235174447, 0.004, 0.9400000000000001, 0.316, 192.0, 0.0, 0.0, 0.0, 0.0, 0.0, 0.0, 0.0, 0.0, 0.0, 1.6961093612663305E9, 0.0, 2023-09-30 16:29:21.266
215.0, 156825.29292408144, -165955.5334991853, -176459.1993640899, -171805.14148535032, 156903.03229129702, -176869.42093007817, 156833.13838638525, -187500.02235174447, 0.004, 0.9400000000000001, 0.316, 192.0, 0.0, 0.0, 0.0, 0.0, 0.0, 0.0, 0.0, 0.0, 0.0, 1.696109361266343E9, 0.0, 2023-09-30 16:29:21.266
216.0, 156823.3259705694, -165102.63563425967, -176454.5502012432, -171793.76444742258, 156901.15474476275, -176867.72219749956, 156831.52906078447, -187500.02235174447, 0.004, 0.9400000000000001, 0.316, 192.0, 0.0, 0.0, 0.0, 0.0, 0.0, 0.0, 0.0, 0.0, 0.0, 1.6961093612663538E9, 0.0, 2023-09-30 16:29:21.266
217.0, 156821.64958973523, -164756.31770566915, -176449.72222444086, -171782.1862437947, 156899.47836392862, -176858.87090669526, 156829.85267995033, -187500.02235174447, 0.004, 0.9400000000000001, 0.316, 192.0, 0.0, 0.0, 0.0, 0.0, 0.0, 0.0, 0.0, 0.0, 0.0, 1.6961093612663653E9, 0.0, 2023-09-30 16:29:21.266
218.0, 156808.5067639955, -165857.7893206822, -176445.22952380535, -171789.6070229539, 156886.3355381889, -176853.05945313687, 156816.39692978823, -187500.02235174447, 0.004, 0.9400000000000001, 0.316, 192.0, 0.0, 0.0, 0.0, 0.0, 0.0, 0.0, 0.0, 0.0, 0.0, 1.6961093612663772E9, 0.0, 2023-09-30 16:29:21.266
219.0, 156795.766269656, -166073.48365467592, -176438.36753825756, -171787.1036275749, 156873.46093338262, -176847.3374065563, 156803.58938021533, -187500.02235174447, 0.004, 0.9400000000000001, 0.316, 192.0, 0.0, 0.0, 0.0, 0.0, 0.0, 0.0, 0.0, 0.0, 0.0, 1.6961093612663891E9, 0.0, 2023-09-30 16:29:21.266
220.0, 156791.74295565404, -165320.69925316566, -176433.0925265661, -171777.38061873682, 156869.5270263585, -176846.13041235573, 156799.92369412468, -187500.02235174447, 0.004, 0.9400000000000001, 0.316, 192.0, 0.0, 0.0, 0.0, 0.0, 0.0, 0.0, 0.0, 0.0, 0.0, 1.6961093612664008E9, 0.0, 2023-09-30 16:29:21.266
221.0, 156792.63702543225, -164723.79591748666, -176429.78446838673, -171764.41660695276, 156870.532854859, -176838.66492970765, 156801.08598483636, -187500.02235174447, 0.004, 0.9400000000000001, 0.316, 192.0, 0.0, 0.0, 0.0, 0.0, 0.0, 0.0, 0.0, 0.0, 0.0, 1.696109361266412E9, 0.0, 2023-09-30 16:29:21.266
222.0, 156779.58360667035, -165716.12396432448, -176423.95066308387, -171769.22223201065, 156857.34532563036, -176831.40061275967, 156787.6078829298, -187500.02235174447, 0.004, 0.9400000000000001, 0.316, 192.0, 0.0, 0.0, 0.0, 0.0, 0.0, 0.0, 0.0, 0.0, 0.0, 1.696109361266424E9, 0.0, 2023-09-30 16:29:21.266
223.0, 156769.25710073198, -166171.2725366679, -176420.66495664895, -171772.038551812, 156846.86235748083, -176828.40547900266, 156777.05785954688, -187500.02235174447, 0.002, 0.936, 0.31, 192.0, 0.0, 16.0, 29.0, 64.0, 9.0, 176.0, 0.0, 0.0, 0.0, 1.6961093612664351E9, 0.0, 2023-09-30 16:29:21.266
224.0, 156766.08315301934, -165538.24878194914, -176417.2898432362, -171766.65178139828, 156843.71076151263, -176830.14891507017, 156774.12978102325, -187500.02235174447, 0.002, 0.936, 0.31, 192.0, 0.0, 0.0, 0.0, 0.0, 0.0, 0.0, 0.0, 0.0, 0.0, 1.6961093612664464E9, 0.0, 2023-09-30 16:29:21.266
225.0, 156764.83145532984, -164756.47416788034, -176411.0984100221, -171749.28447595652, 156842.50376731204, -176820.42590623212, 156773.19100775613, -187500.02235174447, 0.002, 0.936, 0.31, 192.0, 0.0, 0.0, 0.0, 0.0, 0.0, 0.0, 0.0, 0.0, 0.0, 1.696109361266458E9, 0.0, 2023-09-30 16:29:21.266
226.0, 156753.8120453134, -165539.34401742744, -176405.15284599696, -171751.29613295748, 156831.55141252893, -176812.66985090612, 156761.92572855065, -187500.02235174447, 0.002, 0.936, 0.31, 192.0, 0.0, 0.0, 0.0, 0.0, 0.0, 0.0, 0.0, 0.0, 0.0, 1.6961093612664692E9, 0.0, 2023-09-30 16:29:21.266
227.0, 156738.61285908378, -166232.56101996434, -176398.20145347138, -171752.57018239144, 156816.2181158326, -176805.1820165136, 156746.48067313203, -187500.02235174447, 0.002, 0.936, 0.31, 192.0, 0.0, 0.0, 0.0, 0.0, 0.0, 0.0, 0.0, 0.0, 0.0, 1.696109361266481E9, 0.0, 2023-09-30 16:29:21.266
228.0, 156736.78001603842, -165738.7215779688, -176397.5979563711, -171751.51965040204, 156814.38527278724, -176809.7417723825, 156744.93840276462, -187500.02235174447, 0.002, 0.936, 0.31, 192.0, 0.0, 0.0, 0.0, 0.0, 0.0, 0.0, 0.0, 0.0, 0.0, 1.696109361266496E9, 0.0, 2023-09-30 16:29:21.266
229.0, 156740.1551294512, -164850.7538259928, -176395.96627902583, -171738.33212117341, 156817.80508968892, -176805.986679314, 156748.5593853664, -187500.02235174447, 0.002, 0.936, 0.31, 192.0, 0.0, 0.0, 0.0, 0.0, 0.0, 0.0, 0.0, 0.0, 0.0, 1.6961093612665076E9, 0.0, 2023-09-30 16:29:21.266
230.0, 156730.81210026887, -165352.75165471455, -176389.35016266708, -171735.82872579442, 156808.4173570177, -176796.64365013168, 156738.92578350613, -187500.02235174447, 0.002, 0.936, 0.31, 192.0, 0.0, 0.0, 0.0, 0.0, 0.0, 0.0, 0.0, 0.0, 0.0, 1.6961093612665188E9, 0.0, 2023-09-30 16:29:21.266
231.0, 156716.37287335075, -166250.21889808404, -176383.91868876442, -171740.52259213003, 156793.77696439947, -176790.3851616842, 156723.97246646555, -187500.02235174447, 0.002, 0.936, 0.31, 192.0, 0.0, 0.0, 0.0, 0.0, 0.0, 0.0, 0.0, 0.0, 0.0, 1.69610936126653E9, 0.0, 2023-09-30 16:29:21.266
232.0, 156711.12021340374, -165911.09823120813, -176381.0800172186, -171738.55563861795, 156788.63606317475, -176792.15094949616, 156718.96567570756, -187500.02235174447, 0.002, 0.936, 0.31, 192.0, 0.0, 0.0, 0.0, 0.0, 0.0, 0.0, 0.0, 0.0, 0.0, 1.6961093612665412E9, 0.0, 2023-09-30 16:29:21.266
233.0, 156712.0366349264, -164983.88081596862, -176377.4366828724, -171724.29522565549, 156789.64189167524, -176787.971173283, 156720.21737339706, -187500.02235174447, 0.002, 0.936, 0.31, 192.0, 0.0, 0.0, 0.0, 0.0, 0.0, 0.0, 0.0, 0.0, 0.0, 1.696109361266552E9, 0.0, 2023-09-30 16:29:21.266
234.0, 156709.13090814723, -165166.85219607977, -176374.84388051557, -171721.50125759857, 156786.73616489605, -176781.84679530226, 156717.2445913845, -187500.02235174447, 0.004, 0.9420000000000001, 0.314, 192.0, 0.0, 32.0, 29.0, 112.0, 9.0, 208.0, 0.0, 0.0, 0.0, 1.6961093612665627E9, 0.0, 2023-09-30 16:29:21.266
235.0, 156697.0386143969, -166210.7233656315, -176372.04991245866, -171730.3972518918, 156774.37565021226, -176778.24816444496, 156704.79466972288, -187500.02235174447, 0.004, 0.9420000000000001, 0.314, 192.0, 0.0, 0.0, 0.0, 0.0, 0.0, 0.0, 0.0, 0.0, 0.0, 1.6961093612665737E9, 0.0, 2023-09-30 16:29:21.266
236.0, 156686.5332945029, -166052.58477361023, -176365.2773338887, -171725.6810338117, 156763.93738555163, -176774.98480975447, 156694.46816378454, -187500.02235174447, 0.004, 0.9420000000000001, 0.314, 192.0, 0.0, 0.0, 0.0, 0.0, 0.0, 0.0, 0.0, 0.0, 0.0, 1.6961093612665844E9, 0.0, 2023-09-30 16:29:21.266
237.0, 156683.2922915569, -165153.15057672866, -176358.70592101885, -171710.2359783931, 156760.8081413279, -176769.64274282966, 156691.60714049425, -187500.02235174447, 0.004, 0.9420000000000001, 0.314, 192.0, 0.0, 0.0, 0.0, 0.0, 0.0, 0.0, 0.0, 0.0, 0.0, 1.6961093612665951E9, 0.0, 2023-09-30 16:29:21.266
238.0, 156678.6878321991, -165018.59307510772, -176352.29097036016, -171699.08245790988, 156756.2036819701, -176758.80214676884, 156687.00268113645, -187500.02235174447, 0.004, 0.9420000000000001, 0.314, 192.0, 0.0, 0.0, 0.0, 0.0, 0.0, 0.0, 0.0, 0.0, 0.0, 1.6961093612666063E9, 0.0, 2023-09-30 16:29:21.266
239.0, 156665.0756198258, -166127.03843439085, -176347.68651100236, -171706.86086498035, 156742.3903038967, -176753.25891414392, 156672.8316751518, -187500.02235174447, 0.004, 0.9420000000000001, 0.314, 192.0, 0.0, 0.0, 0.0, 0.0, 0.0, 0.0, 0.0, 0.0, 0.0, 1.6961093612666173E9, 0.0, 2023-09-30 16:29:21.266
240.0, 156657.00664007745, -166175.20644369203, -176344.378452823, -171706.8161614914, 156734.1872136816, -176752.0295681989, 156664.6732884256, -187500.02235174447, 0.004, 0.9420000000000001, 0.314, 192.0, 0.0, 0.0, 0.0, 0.0, 0.0, 0.0, 0.0, 0.0, 0.0, 1.6961093612666278E9, 0.0, 2023-09-30 16:29:21.266
241.0, 156654.5702999318, -165345.1744133442, -176339.5281242762, -171695.30501309695, 156731.8402805138, -176750.04026294235, 156662.6169279357, -187500.02235174447, 0.004, 0.9420000000000001, 0.314, 192.0, 0.0, 0.0, 0.0, 0.0, 0.0, 0.0, 0.0, 0.0, 0.0, 1.6961093612666392E9, 0.0, 2023-09-30 16:29:21.266
242.0, 156651.44105570807, -164919.79836461524, -176332.88965617295, -171680.35169605634, 156728.75573977898, -176738.73028024798, 156659.64414592317, -187500.02235174447, 0.004, 0.9420000000000001, 0.314, 192.0, 0.0, 0.0, 0.0, 0.0, 0.0, 0.0, 0.0, 0.0, 0.0, 1.6961093617436235E9, 0.0, 2023-09-30 16:29:21.743
243.0, 156636.19716598955, -165992.83856068118, -176325.8265049251, -171685.24672809205, 156713.489498316, -176730.59424526623, 156644.0202765489, -187500.02235174447, 0.004, 0.9420000000000001, 0.314, 192.0, 0.0, 0.0, 0.0, 0.0, 0.0, 0.0, 0.0, 0.0, 0.0, 1.696109361743746E9, 0.0, 2023-09-30 16:29:21.743
244.0, 156626.45180540704, -166270.6930960051, -176322.49609500123, -171686.36431531483, 156703.74413773348, -176728.00144290942, 156634.23021247747, -187500.02235174447, 0.002, 0.9400000000000001, 0.312, 192.0, 0.0, 16.0, 29.0, 96.0, 9.0, 192.0, 0.0, 0.0, 0.0, 1.696109361743786E9, 0.0, 2023-09-30 16:29:21.743
245.0, 156624.95423852853, -165546.25070646414, -176319.83623741107, -171679.70349546714, 156702.22421911053, -176729.67782374358, 156633.04557002135, -187500.02235174447, 0.002, 0.9400000000000001, 0.312, 192.0, 0.0, 0.0, 0.0, 0.0, 0.0, 0.0, 0.0, 0.0, 0.0, 1.696109361743814E9, 0.0, 2023-09-30 16:29:21.743
246.0, 156624.08252049476, -164888.64003284456, -176314.33770827507, -171663.49848073703, 156701.39720456567, -176719.84305618325, 156632.39736943215, -187500.02235174447, 0.002, 0.9400000000000001, 0.312, 192.0, 0.0, 0.0, 0.0, 0.0, 0.0, 0.0, 0.0, 0.0, 0.0, 1.696109361743842E9, 0.0, 2023-09-30 16:29:21.743
247.0, 156611.99022674444, -165820.46190744184, -176308.4144959944, -171667.8794226503, 156689.17080034863, -176712.66814621308, 156619.969799515, -187500.02235174447, 0.002, 0.9400000000000001, 0.312, 192.0, 0.0, 0.0, 0.0, 0.0, 0.0, 0.0, 0.0, 0.0, 0.0, 1.6961093617438672E9, 0.0, 2023-09-30 16:29:21.743
248.0, 156601.55196208382, -166338.59769566034, -176305.2181965373, -171671.1204255963, 156678.5313699879, -176709.33773628925, 156609.2633139209, -187500.02235174447, 0.002, 0.9400000000000001, 0.312, 192.0, 0.0, 0.0, 0.0, 0.0, 0.0, 0.0, 0.0, 0.0, 0.0, 1.696109361743889E9, 0.0, 2023-09-30 16:29:21.743
249.0, 156597.97568297098, -165736.48640352327, -176301.6642691689, -171665.75600692703, 156675.1339048307, -176710.79059967885, 156605.99995923042, -187500.02235174447, 0.002, 0.9400000000000001, 0.312, 192.0, 0.0, 0.0, 0.0, 0.0, 0.0, 0.0, 0.0, 0.0, 0.0, 1.6961093617439103E9, 0.0, 2023-09-30 16:29:21.743
250.0, 156597.39453761512, -164917.29496923627, -176296.16574003288, -171648.2545910185, 156674.66451819713, -176701.42521875206, 156605.75409004142, -187500.02235174447, 0.002, 0.9400000000000001, 0.312, 192.0, 0.0, 0.0, 0.0, 0.0, 0.0, 0.0, 0.0, 0.0, 0.0, 1.6961093617439387E9, 0.0, 2023-09-30 16:29:21.743
251.0, 156588.87852297767, -165619.095041644, -176291.71774288628, -171650.80268988642, 156666.0814483263, -176694.94321286003, 156596.9698544705, -187500.02235174447, 0.002, 0.9400000000000001, 0.312, 192.0, 0.0, 0.0, 0.0, 0.0, 0.0, 0.0, 0.0, 0.0, 0.0, 1.69610936174397E9, 0.0, 2023-09-30 16:29:21.743
252.0, 156578.3508513392, -166371.83473966536, -176289.75078937423, -171657.23999228954, 156655.46436971, -176692.01513433637, 156586.1069066652, -187500.02235174447, 0.002, 0.9400000000000001, 0.312, 192.0, 0.0, 0.0, 0.0, 0.0, 0.0, 0.0, 0.0, 0.0, 0.0, 1.6961093617439885E9, 0.0, 2023-09-30 16:29:21.743
253.0, 156573.88050244816, -165913.1098882091, -176286.64389689494, -171654.021341088, 156651.08342779678, -176693.87032912616, 156581.81537172978, -187500.02235174447, 0.002, 0.9400000000000001, 0.312, 192.0, 0.0, 0.0, 0.0, 0.0, 0.0, 0.0, 0.0, 0.0, 0.0, 1.6961093617440155E9, 0.0, 2023-09-30 16:29:21.744
254.0, 156576.51800829388, -165010.45704012597, -176284.54283291614, -171640.02914905897, 156653.78798887588, -176689.3552767462, 156584.87756072017, -187500.02235174447, 0.002, 0.9380000000000001, 0.31, 192.0, 0.0, 16.0, 29.0, 80.0, 9.0, 176.0, 0.0, 0.0, 0.0, 1.696109361744035E9, 0.0, 2023-09-30 16:29:21.744
255.0, 156566.83970294474, -165421.30445495897, -176276.58561189004, -171634.97765481207, 156643.93086957108, -176678.73819812993, 156575.04279315984, -187500.02235174447, 0.002, 0.9380000000000001, 0.31, 192.0, 0.0, 0.0, 0.0, 0.0, 0.0, 0.0, 0.0, 0.0, 0.0, 1.696109361744056E9, 0.0, 2023-09-30 16:29:21.744
0.0, 156550.52292949235, -166368.66079195272, -176269.4107019199, -171638.33041648037, 156627.43528216306, -176670.4009974481, 156558.27898481835, -187500.02235174447, 0.002, 0.9380000000000001, 0.31, 192.0, 0.0, 0.0, 0.0, 0.0, 0.0, 0.0, 0.0, 0.0, 0.0, 1.6961093617440748E9, 0.0, 2023-09-30 16:29:21.744
1.0, 156546.0078771124, -166071.02496278586, -176267.33198968554, -171637.52575367998, 156622.98728501645, -176672.6585236381, 156553.98744988293, -187500.02235174447, 0.002, 0.9380000000000001, 0.31, 192.0, 0.0, 0.0, 0.0, 0.0, 0.0, 0.0, 0.0, 0.0, 0.0, 1.6961093617440996E9, 0.0, 2023-09-30 16:29:21.744
2.0, 156546.0972840902, -165148.85904179324, -176263.28632393913, -171622.95241629513, 156623.18845071655, -176668.0987677692, 156554.38978128313, -187500.02235174447, 0.002, 0.9380000000000001, 0.31, 192.0, 0.0, 0.0, 0.0, 0.0, 0.0, 0.0, 0.0, 0.0, 0.0, 1.6961093617441237E9, 0.0, 2023-09-30 16:29:21.744
3.0, 156539.0564845868, -165235.82967946885, -176255.64202733542, -171613.94466327963, 156616.08059597976, -176656.81113681928, 156547.21487131296, -187500.02235174447, 0.002, 0.9380000000000001, 0.31, 192.0, 0.0, 0.0, 0.0, 0.0, 0.0, 0.0, 0.0, 0.0, 0.0, 1.6961093617441475E9, 0.0, 2023-09-30 16:29:21.744
4.0, 156526.5842111807, -166308.7134133236, -176252.4457278783, -171622.81830582838, 156603.49656385143, -176652.56430537277, 156534.36261825118, -187500.02235174447, 0.002, 0.9380000000000001, 0.31, 192.0, 0.0, 0.0, 0.0, 0.0, 0.0, 0.0, 0.0, 0.0, 0.0, 1.6961093617441747E9, 0.0, 2023-09-30 16:29:21.744
5.0, 156518.1799552655, -166197.73700210298, -176247.8412685205, -171620.62783487176, 156595.1146596807, -176651.2902559388, 156525.9360105915, -187500.02235174447, 0.002, 0.9380000000000001, 0.31, 192.0, 0.0, 0.0, 0.0, 0.0, 0.0, 0.0, 0.0, 0.0, 0.0, 1.6961093617442107E9, 0.0, 2023-09-30 16:29:21.744
6.0, 156514.38015870814, -165313.4125844732, -176241.1357451839, -171605.42864864215, 156591.4042701011, -176645.97054075846, 156522.60560066768, -187500.02235174447, 0.002, 0.9380000000000001, 0.31, 192.0, 0.0, 0.0, 0.0, 0.0, 0.0, 0.0, 0.0, 0.0, 0.0, 1.6961093617442515E9, 0.0, 2023-09-30 16:29:21.744
7.0, 156511.11680401766, -165082.47436076097, -176235.3913468589, -171594.27512815894, 156588.11856366618, -176636.26988366485, 156519.4987081884, -187500.02235174447, 0.002, 0.9380000000000001, 0.31, 192.0, 0.0, 0.0, 0.0, 0.0, 0.0, 0.0, 0.0, 0.0, 0.0, 1.6961093617442904E9, 0.0, 2023-09-30 16:29:21.744
8.0, 156499.56095213426, -166189.66802235463, -176232.597378802, -171603.97578525255, 156576.33919433824, -176632.55949408526, 156507.3393592047, -187500.02235174447, 0.004, 0.9420000000000001, 0.316, 192.0, 0.0, 32.0, 29.0, 112.0, 9.0, 224.0, 0.0, 0.0, 0.0, 1.6961093617443087E9, 0.0, 2023-09-30 16:29:21.744
9.0, 156491.31315843025, -166285.2440816455, -176229.35637585598, -171604.37811665275, 156568.11375237867, -176631.37485162914, 156498.97980677843, -187500.02235174447, 0.004, 0.9420000000000001, 0.316, 192.0, 0.0, 0.0, 0.0, 0.0, 0.0, 0.0, 0.0, 0.0, 0.0, 1.6961093617443252E9, 0.0, 2023-09-30 16:29:21.744
10.0, 156486.82045779473, -165479.24017658713, -176223.03083217514, -171592.28582290243, 156563.7551622099, -176628.44677310548, 156494.91178928755, -187500.02235174447, 0.004, 0.9420000000000001, 0.316, 192.0, 0.0, 0.0, 0.0, 0.0, 0.0, 0.0, 0.0, 0.0, 0.0, 1.6961093617443447E9, 0.0, 2023-09-30 16:29:21.744
11.0, 156484.67469032703, -164968.65927799456, -176216.83939896102, -171577.243098884, 156561.67644997555, -176617.9861567004, 156493.03424275332, -187500.02235174447, 0.004, 0.9420000000000001, 0.316, 192.0, 0.0, 0.0, 0.0, 0.0, 0.0, 0.0, 0.0, 0.0, 0.0, 1.6961093617443576E9, 0.0, 2023-09-30 16:29:21.744
12.0, 156472.940024488, -166011.8375434682, -176212.83843670352, -171584.77563676544, 156549.74061843642, -176612.91231070904, 156480.85254202515, -187500.02235174447, 0.004, 0.9420000000000001, 0.316, 192.0, 0.0, 0.0, 0.0, 0.0, 0.0, 0.0, 0.0, 0.0, 0.0, 1.69610936174437E9, 0.0, 2023-09-30 16:29:21.744
13.0, 156462.85938773863, -166342.12927128427, -176209.17275061284, -171586.72023853307, 156539.5482229648, -176610.27480486332, 156470.61544306463, -187500.02235174447, 0.004, 0.9420000000000001, 0.316, 192.0, 0.0, 0.0, 0.0, 0.0, 0.0, 0.0, 0.0, 0.0, 0.0, 1.6961093617443876E9, 0.0, 2023-09-30 16:29:21.744
14.0, 156459.95366095947, -165646.16300417937, -176205.7976372001, -171580.28293612992, 156536.86601363018, -176611.70531650845, 156468.0896959412, -187500.02235174447, 0.004, 0.9420000000000001, 0.316, 192.0, 0.0, 0.0, 0.0, 0.0, 0.0, 0.0, 0.0, 0.0, 0.0, 1.6961093617444477E9, 0.0, 2023-09-30 16:29:21.744
15.0, 156460.11012317063, -164920.91595183802, -176201.12612260893, -171564.65906675567, 156537.1565863081, -176603.41281931553, 156468.5367308303, -187500.02235174447, 0.004, 0.9420000000000001, 0.316, 192.0, 0.0, 0.0, 0.0, 0.0, 0.0, 0.0, 0.0, 0.0, 0.0, 1.696109361744466E9, 0.0, 2023-09-30 16:29:21.744
