%OpenBCI Raw EXG Data
%Number of channels = 8
%Sample Rate = 250 Hz
%Board = OpenBCI_GUI$BoardCytonSerial
Sample Index, EXG Channel 0, EXG Channel 1, EXG Channel 2, EXG Channel 3, EXG Channel 4, EXG Channel 5, EXG Channel 6, EXG Channel 7, Accel Channel 0, Accel Channel 1, Accel Channel 2, Other, Other, Other, Other, Other, Other, Other, Analog Channel 0, Analog Channel 1, Analog Channel 2, Timestamp, Other, Timestamp (Formatted)
250.0, 152191.7092432629, 151555.06450594243, -158706.37103395117, -159065.83178828142, 153678.48022919658, -167722.99769198868, 81092.08418036511, 88858.8236402063, 0.0, 0.0, 0.0, 192.0, 0.0, 0.0, 0.0, 0.0, 0.0, 0.0, 0.0, 0.0, 0.0, 1.6961087759720163E9, 0.0, 2023-09-30 16:19:35.972
251.0, 152498.21871497855, 152405.79425165587, -158716.58578116726, -159110.26705625857, 153690.5725229469, -167751.4514626803, 80881.95543074077, 89001.76304599798, 0.0, 0.0, 0.0, 192.0, 0.0, 0.0, 0.0, 0.0, 0.0, 0.0, 0.0, 0.0, 0.0, 1.6961087759720347E9, 0.0, 2023-09-30 16:19:35.972
252.0, 152445.06626666384, 151940.65444954092, -158754.82961593027, -159080.4498291552, 153676.91560708472, -167736.60990436198, 80870.01959920164, 89147.96580648015, 0.0, 0.0, 0.0, 192.0, 0.0, 0.0, 0.0, 0.0, 0.0, 0.0, 0.0, 0.0, 0.0, 1.6961087759720483E9, 0.0, 2023-09-30 16:19:35.972
253.0, 152246.62747938963, 151420.41759734365, -158735.13772906517, -159102.28748348803, 153675.55215067294, -167718.46028786426, 81014.81419978311, 88990.18484237014, 0.0, 0.0, 0.0, 192.0, 0.0, 0.0, 0.0, 0.0, 0.0, 0.0, 0.0, 0.0, 0.0, 1.6961087759720607E9, 0.0, 2023-09-30 16:19:35.972
254.0, 152136.52278620278, 151394.6460359867, -158710.61786539768, -159061.76377079057, 153686.88448511178, -167722.05891872157, 81080.59538371509, 88813.60606117321, 0.0, 0.0, 0.0, 192.0, 0.0, 0.0, 0.0, 0.0, 0.0, 0.0, 0.0, 0.0, 0.0, 1.6961087759720726E9, 0.0, 2023-09-30 16:19:35.972
255.0, 152397.34529225176, 152277.0482035933, -158712.18248750956, -159110.57998068095, 153691.95833110315, -167752.5466981586, 80885.82228253155, 88920.64856536967, 0.0, 0.0, 0.0, 192.0, 0.0, 0.0, 0.0, 0.0, 0.0, 0.0, 0.0, 0.0, 0.0, 1.6961087759720845E9, 0.0, 2023-09-30 16:19:35.972
0.0, 152436.59495551526, 152009.65428467444, -158751.8791856622, -159096.78895435203, 153662.34226969985, -167743.62835212093, 80831.01580512713, 89121.09900964488, 0.0, 0.0, 0.0, 192.0, 0.0, 0.0, 0.0, 0.0, 0.0, 0.0, 0.0, 0.0, 0.0, 1.6961087759720964E9, 0.0, 2023-09-30 16:19:35.972
1.0, 152250.44962769147, 151440.22124293106, -158745.0172001144, -159109.48474520264, 153646.58428985887, -167722.4836018662, 80975.98921966425, 89031.55792135691, -0.134, 0.982, -0.022, 192.0, 251.0, 208.0, 30.0, 176.0, 255.0, 80.0, 0.0, 0.0, 0.0, 1.6961087759721081E9, 0.0, 2023-09-30 16:19:35.972
2.0, 152147.09516133013, 151317.97955250498, -158720.54203993586, -159085.9483582912, 153675.1721710172, -167720.51664835415, 81093.11236061006, 88847.29014006736, -0.134, 0.982, -0.022, 192.0, 0.0, 0.0, 0.0, 0.0, 0.0, 0.0, 0.0, 0.0, 0.0, 1.6961087759721203E9, 0.0, 2023-09-30 16:19:35.972
3.0, 152380.96146356603, 152186.411879827, -158706.41573744008, -159091.82686708294, 153670.43360119266, -167745.2376777217, 80944.96499836029, 88933.70198413158, -0.134, 0.982, -0.022, 192.0, 0.0, 0.0, 0.0, 0.0, 0.0, 0.0, 0.0, 0.0, 0.0, 1.6961087759721322E9, 0.0, 2023-09-30 16:19:35.972
4.0, 152535.92610787466, 152223.426368645, -158751.0745228618, -159082.7520588341, 153613.14608015373, -167742.4884131537, 80855.71448275023, 89200.89473735032, -0.134, 0.982, -0.022, 192.0, 0.0, 0.0, 0.0, 0.0, 0.0, 0.0, 0.0, 0.0, 0.0, 1.696108775972144E9, 0.0, 2023-09-30 16:19:35.972
5.0, 152352.4629893855, 151607.5911054124, -158761.35632531124, -159060.10974170087, 153572.37649826726, -167722.14832569938, 80994.27294662868, 89220.6089759599, -0.134, 0.982, -0.022, 192.0, 0.0, 0.0, 0.0, 0.0, 0.0, 0.0, 0.0, 0.0, 0.0, 1.696108775972156E9, 0.0, 2023-09-30 16:19:35.972
6.0, 152239.94430779747, 151384.744213193, -158745.50893849242, -159156.8704434479, 153606.01587367247, -167717.1862384303, 81149.77403280426, 89078.63069517979, -0.134, 0.982, -0.022, 192.0, 0.0, 0.0, 0.0, 0.0, 0.0, 0.0, 0.0, 0.0, 0.0, 1.6961087759721675E9, 0.0, 2023-09-30 16:19:35.972
7.0, 152404.09551907727, 152117.41204469348, -158720.3632259802, -159106.57901842345, 153605.21121087208, -167740.72262534173, 81052.20866825685, 89133.37011735083, -0.134, 0.982, -0.022, 192.0, 0.0, 0.0, 0.0, 0.0, 0.0, 0.0, 0.0, 0.0, 0.0, 1.69610877597218E9, 0.0, 2023-09-30 16:19:35.972
8.0, 152642.92390858222, 152428.70478972254, -158752.79560718485, -159108.12128879086, 153563.90518711868, -167750.0433027796, 80913.2478729782, 89388.67174251935, -0.134, 0.982, -0.022, 192.0, 0.0, 0.0, 0.0, 0.0, 0.0, 0.0, 0.0, 0.0, 0.0, 1.6961087759721913E9, 0.0, 2023-09-30 16:19:35.972
9.0, 152471.77660128791, 151754.46441822822, -158767.81597945883, -159067.26229992657, 153520.52045113093, -167727.2892269241, 81014.83655152757, 89427.04968774911, -0.134, 0.982, -0.022, 192.0, 0.0, 0.0, 0.0, 0.0, 0.0, 0.0, 0.0, 0.0, 0.0, 1.696108775972203E9, 0.0, 2023-09-30 16:19:35.972
10.0, 152342.42705612507, 151444.6021848443, -158747.0288571154, -159150.9248794228, 153564.75455340798, -167716.11335469646, 81169.68943711394, 89224.38642077285, -0.134, 0.982, -0.022, 192.0, 0.0, 0.0, 0.0, 0.0, 0.0, 0.0, 0.0, 0.0, 0.0, 1.6961087759722147E9, 0.0, 2023-09-30 16:19:35.972
11.0, 152423.36272279773, 151984.88855181797, -158722.44193821456, -159114.46918421617, 153585.11699260678, -167735.7828898171, 81106.67986949443, 89164.796670055, -0.134, 0.982, -0.022, 192.0, 251.0, 208.0, 30.0, 176.0, 255.0, 80.0, 0.0, 0.0, 0.0, 1.6961087759722264E9, 0.0, 2023-09-30 16:19:35.972
12.0, 152710.76145300406, 152560.3565645643, -158749.50990074992, -159133.93755363676, 153555.00919282547, -167756.12297727144, 80919.01462304767, 89367.43758528681, -0.134, 0.982, -0.022, 192.0, 0.0, 0.0, 0.0, 0.0, 0.0, 0.0, 0.0, 0.0, 0.0, 1.6961087759722383E9, 0.0, 2023-09-30 16:19:35.972
13.0, 152552.53345400494, 151896.71091994178, -158770.38643007117, -159097.16893400776, 153495.73236653, -167733.12303222693, 80971.83179519555, 89455.90578984092, -0.134, 0.982, -0.022, 192.0, 0.0, 0.0, 0.0, 0.0, 0.0, 0.0, 0.0, 0.0, 0.0, 1.6961087759722495E9, 0.0, 2023-09-30 16:19:35.972
14.0, 152373.47362917347, 151491.58555168935, -158747.8782234047, -159130.4506815017, 153539.81000659586, -167718.95202624227, 81110.1890933739, 89263.569028803, -0.134, 0.982, -0.022, 192.0, 0.0, 0.0, 0.0, 0.0, 0.0, 0.0, 0.0, 0.0, 0.0, 1.696108775972262E9, 0.0, 2023-09-30 16:19:35.972
15.0, 152347.4561986275, 151791.81418321302, -158719.78208062437, -159091.02220428255, 153598.93037068014, -167731.26783743713, 81075.78975865719, 89140.88030348782, -0.134, 0.982, -0.022, 192.0, 0.0, 0.0, 0.0, 0.0, 0.0, 0.0, 0.0, 0.0, 0.0, 1.6961087759722736E9, 0.0, 2023-09-30 16:19:35.972
16.0, 152655.23971977708, 152578.30501536193, -158735.0706738318, -159134.27282980358, 153629.9545919841, -167754.71481737075, 80844.00216865566, 89300.3823519209, -0.134, 0.982, -0.022, 192.0, 0.0, 0.0, 0.0, 0.0, 0.0, 0.0, 0.0, 0.0, 0.0, 1.6961087759722912E9, 0.0, 2023-09-30 16:19:35.972
17.0, 152569.63253851325, 152006.56974393962, -158767.95008992555, -159092.92210256125, 153628.54643208344, -167735.35820667248, 80834.61443598443, 89419.42774288985, -0.134, 0.982, -0.022, 192.0, 0.0, 0.0, 0.0, 0.0, 0.0, 0.0, 0.0, 0.0, 0.0, 1.6961087759723032E9, 0.0, 2023-09-30 16:19:35.972
18.0, 152395.28893176187, 151540.33470634636, -158754.49433976345, -159139.1678618393, 153682.07886005388, -167721.8801047659, 80956.8114229216, 89231.33781329845, -0.134, 0.982, -0.022, 192.0, 0.0, 0.0, 0.0, 0.0, 0.0, 0.0, 0.0, 0.0, 0.0, 1.696108775972315E9, 0.0, 2023-09-30 16:19:35.972
19.0, 152323.7409977604, 151654.7532862131, -158730.04153132933, -159102.01926255456, 153708.81154642242, -167731.17843045932, 80961.39353053493, 89062.71625312761, -0.134, 0.982, -0.022, 192.0, 0.0, 0.0, 0.0, 0.0, 0.0, 0.0, 0.0, 0.0, 0.0, 1.6961087759723268E9, 0.0, 2023-09-30 16:19:35.972
20.0, 152630.85396657634, 152552.8687301718, -158728.7674818954, -159142.5206235076, 153715.8299941814, -167758.60402090597, 80723.86154220838, 89177.73833009462, -0.134, 0.982, -0.022, 192.0, 0.0, 0.0, 0.0, 0.0, 0.0, 0.0, 0.0, 0.0, 0.0, 1.6961087759723384E9, 0.0, 2023-09-30 16:19:35.972
21.0, 152619.4769286486, 152138.78031239277, -158759.88111017717, -159119.92300986327, 153712.54428774648, -167741.01319801965, 80670.55263168248, 89352.17134382384, -0.132, 0.986, -0.018000000000000002, 192.0, 251.0, 224.0, 30.0, 208.0, 255.0, 112.0, 0.0, 0.0, 0.0, 1.6961087759723504E9, 0.0, 2023-09-30 16:19:35.972
22.0, 152402.3297312653, 151571.49303811707, -158748.10174084923, -159127.9025826338, 153709.61620922282, -167723.51178211116, 80790.91677557431, 89238.40096454632, -0.132, 0.986, -0.018000000000000002, 192.0, 0.0, 0.0, 0.0, 0.0, 0.0, 0.0, 0.0, 0.0, 0.0, 1.696108775972362E9, 0.0, 2023-09-30 16:19:35.972
23.0, 152266.25231102138, 151484.79062137494, -158722.956028337, -159071.46442788417, 153705.59289522088, -167723.4894303667, 80855.69213100578, 89054.35670070133, -0.132, 0.986, -0.018000000000000002, 192.0, 0.0, 0.0, 0.0, 0.0, 0.0, 0.0, 0.0, 0.0, 0.0, 1.6961087759723737E9, 0.0, 2023-09-30 16:19:35.972
24.0, 152499.91744755715, 152365.7175738475, -158721.07848180278, -159131.1659373243, 153711.69492145718, -167753.3960644479, 80668.85389910388, 89132.02901268352, -0.132, 0.986, -0.018000000000000002, 192.0, 0.0, 0.0, 0.0, 0.0, 0.0, 0.0, 0.0, 0.0, 0.0, 1.696108775972386E9, 0.0, 2023-09-30 16:19:35.972
25.0, 152549.89594815922, 152170.36332730812, -158762.36215381173, -159114.02214932707, 153713.9300959027, -167747.13757600042, 80604.88320647279, 89325.66217489984, -0.132, 0.986, -0.018000000000000002, 192.0, 0.0, 0.0, 0.0, 0.0, 0.0, 0.0, 0.0, 0.0, 0.0, 1.696108775972398E9, 0.0, 2023-09-30 16:19:35.972
26.0, 152332.949916476, 151548.15781690573, -158761.08810437776, -159118.44779472923, 153709.6385609673, -167724.31644491156, 80758.12676645837, 89242.24546459263, -0.132, 0.986, -0.018000000000000002, 192.0, 0.0, 0.0, 0.0, 0.0, 0.0, 0.0, 0.0, 0.0, 0.0, 1.6961087759724097E9, 0.0, 2023-09-30 16:19:35.972
27.0, 152199.2641328888, 151356.8715878572, -158737.43995874404, -159118.29133251804, 153707.09046209938, -167719.95785474277, 80902.92136703985, 89035.46947663659, -0.132, 0.986, -0.018000000000000002, 192.0, 0.0, 0.0, 0.0, 0.0, 0.0, 0.0, 0.0, 0.0, 0.0, 1.696108775972422E9, 0.0, 2023-09-30 16:19:35.972
28.0, 152405.39192025567, 152183.170876881, -158719.5585631798, -159106.95899807918, 153711.35964529033, -167745.72941609973, 80783.5183481596, 89052.1215262558, -0.132, 0.986, -0.018000000000000002, 192.0, 0.0, 0.0, 0.0, 0.0, 0.0, 0.0, 0.0, 0.0, 0.0, 1.6961087759724336E9, 0.0, 2023-09-30 16:19:35.972
29.0, 152593.54890508045, 152312.40866332158, -158759.16585435462, -159109.61885566937, 153717.17109884872, -167750.26682022415, 80685.08126557842, 89275.01312196412, -0.132, 0.986, -0.018000000000000002, 192.0, 0.0, 0.0, 0.0, 0.0, 0.0, 0.0, 0.0, 0.0, 0.0, 1.696108775972446E9, 0.0, 2023-09-30 16:19:35.972
30.0, 152408.90114413513, 151656.02733564703, -158764.50792127944, -159090.5975211379, 153714.041854625, -167726.61867459043, 80815.30252877505, 89299.55533737605, -0.132, 0.986, -0.018000000000000002, 192.0, 0.0, 0.0, 0.0, 0.0, 0.0, 0.0, 0.0, 0.0, 0.0, 1.6961087759724576E9, 0.0, 2023-09-30 16:19:35.972
31.0, 152286.65945370906, 151392.3885097967, -158748.43701701605, -159141.6712572183, 153711.9407906462, -167720.24842742068, 80965.52860325917, 89146.42353611274, -0.13, 0.984, -0.014, 192.0, 251.0, 240.0, 30.0, 192.0, 255.0, 144.0, 0.0, 0.0, 0.0, 1.69610877597247E9, 0.0, 2023-09-30 16:19:35.972
32.0, 152433.39865605815, 152080.3528523866, -158724.23007777098, -159103.67329164426, 153715.24884882558, -167743.0025032762, 80868.56673581204, 89169.57994336843, -0.13, 0.984, -0.014, 192.0, 0.0, 0.0, 0.0, 0.0, 0.0, 0.0, 0.0, 0.0, 0.0, 1.6961087759724815E9, 0.0, 2023-09-30 16:19:35.972
33.0, 152712.72840651614, 152509.77456686195, -158752.8179589293, -159128.19315531175, 153718.9815901496, -167754.26778248165, 80700.3922105303, 89421.5064551242, -0.13, 0.984, -0.014, 192.0, 0.0, 0.0, 0.0, 0.0, 0.0, 0.0, 0.0, 0.0, 0.0, 1.6961087759724932E9, 0.0, 2023-09-30 16:19:35.972
34.0, 152532.1933665506, 151810.74611076666, -158764.53027302388, -159089.68109961523, 153715.96410464813, -167731.55841011507, 80772.38717942085, 89494.52960425969, -0.13, 0.984, -0.014, 192.0, 0.0, 0.0, 0.0, 0.0, 0.0, 0.0, 0.0, 0.0, 0.0, 1.6961087759725049E9, 0.0, 2023-09-30 16:19:35.972
35.0, 152354.02761149735, 151435.61678357326, -158743.9219646361, -159130.94241987975, 153711.56081099043, -167721.9918634882, 80906.27412870814, 89312.83227358249, -0.13, 0.984, -0.014, 192.0, 0.0, 0.0, 0.0, 0.0, 0.0, 0.0, 0.0, 0.0, 0.0, 1.6961087759725163E9, 0.0, 2023-09-30 16:19:35.972
36.0, 152376.96050130852, 151881.08705056753, -158723.17954578158, -159094.03968978403, 153712.00784587956, -167740.16383173034, 80840.47059303171, 89240.12204886938, -0.13, 0.984, -0.014, 192.0, 0.0, 0.0, 0.0, 0.0, 0.0, 0.0, 0.0, 0.0, 0.0, 1.696108775972528E9, 0.0, 2023-09-30 16:19:35.972
37.0, 152659.06186807895, 152526.4936717145, -158738.75871166692, -159142.07358861848, 153716.94758140418, -167762.67203839685, 80622.20580842564, 89415.29267016563, -0.13, 0.984, -0.014, 192.0, 0.0, 0.0, 0.0, 0.0, 0.0, 0.0, 0.0, 0.0, 0.0, 1.6961087759725444E9, 0.0, 2023-09-30 16:19:35.972
38.0, 152481.499610126, 151838.17170121334, -158759.45642703254, -159114.84916387193, 153714.19831683618, -167743.337779443, 80642.61295111335, 89485.25363031073, -0.13, 0.984, -0.014, 192.0, 0.0, 0.0, 0.0, 0.0, 0.0, 0.0, 0.0, 0.0, 0.0, 1.696108775972556E9, 0.0, 2023-09-30 16:19:35.972
39.0, 152266.52053195483, 151363.35359374926, -158735.54006046534, -159103.2039050107, 153706.75518593256, -167728.51857286913, 80770.19670846424, 89271.90622948483, -0.13, 0.984, -0.014, 192.0, 0.0, 0.0, 0.0, 0.0, 0.0, 0.0, 0.0, 0.0, 0.0, 1.6961087759725676E9, 0.0, 2023-09-30 16:19:35.972
40.0, 152195.88901947608, 151564.85457001385, -158719.44680445752, -159078.88520704332, 153705.0788050984, -167740.3873491749, 80753.96934198968, 89120.76373347804, -0.13, 0.984, -0.014, 192.0, 0.0, 0.0, 0.0, 0.0, 0.0, 0.0, 0.0, 0.0, 0.0, 1.6961087759725792E9, 0.0, 2023-09-30 16:19:35.972
41.0, 152487.2887119399, 152374.61356814072, -158732.5225749639, -159149.60612649992, 153710.51027900103, -167769.15404428888, 80532.39649920423, 89260.77506074609, -0.13, 0.984, -0.014, 192.0, 0.0, 0.0, 0.0, 0.0, 0.0, 0.0, 0.0, 0.0, 0.0, 1.6961087759725907E9, 0.0, 2023-09-30 16:19:35.972
42.0, 152400.0722050753, 151826.36998014094, -158765.71491548003, -159115.09503306093, 153703.5812382199, -167753.41841619235, 80529.9601590586, 89399.82526300255, -0.13, 0.98, -0.014, 192.0, 251.0, 240.0, 30.0, 160.0, 255.0, 144.0, 0.0, 0.0, 0.0, 1.6961087759726024E9, 0.0, 2023-09-30 16:19:35.972
43.0, 152210.14943243854, 151328.08254099876, -158754.74020895245, -159141.805367685, 153700.38493876279, -167736.36403517294, 80683.96367835566, 89250.24738910764, -0.13, 0.98, -0.014, 192.0, 0.0, 0.0, 0.0, 0.0, 0.0, 0.0, 0.0, 0.0, 0.0, 1.6961087759726138E9, 0.0, 2023-09-30 16:19:35.972
44.0, 152137.37215249208, 151389.99687314, -158734.55658370932, -159101.99691081012, 153704.49765974257, -167739.6944450968, 80753.85758326741, 89088.42075925121, -0.13, 0.98, -0.014, 192.0, 0.0, 0.0, 0.0, 0.0, 0.0, 0.0, 0.0, 0.0, 0.0, 1.6961087759726255E9, 0.0, 2023-09-30 16:19:35.972
45.0, 152460.66778429365, 152339.4989776014, -158732.1649470526, -159133.49051874765, 153710.2197063231, -167767.79058787713, 80574.8201101804, 89204.78394088554, -0.13, 0.98, -0.014, 192.0, 0.0, 0.0, 0.0, 0.0, 0.0, 0.0, 0.0, 0.0, 0.0, 1.6961087759726372E9, 0.0, 2023-09-30 16:19:35.972
46.0, 152508.25464823897, 152029.94966863986, -158771.88399694968, -159100.70050963172, 153705.90581964326, -167755.51948017115, 80553.20597329212, 89405.21203341628, -0.13, 0.98, -0.014, 192.0, 0.0, 0.0, 0.0, 0.0, 0.0, 0.0, 0.0, 0.0, 0.0, 1.6961087759726489E9, 0.0, 2023-09-30 16:19:35.972
47.0, 152324.72447451646, 151465.009327532, -158768.26301434793, -159127.5002512336, 153705.65995045425, -167736.67695959532, 80712.70802172518, 89316.67677362882, -0.13, 0.98, -0.014, 192.0, 0.0, 0.0, 0.0, 0.0, 0.0, 0.0, 0.0, 0.0, 0.0, 1.6961087759726603E9, 0.0, 2023-09-30 16:19:35.972
48.0, 152223.22520294492, 151372.60721595376, -158744.39135126965, -159151.30485907852, 153710.19735457868, -167735.67113109483, 80830.81463942703, 89144.72480353413, -0.13, 0.98, -0.014, 192.0, 0.0, 0.0, 0.0, 0.0, 0.0, 0.0, 0.0, 0.0, 0.0, 1.6961087759726717E9, 0.0, 2023-09-30 16:19:35.972
49.0, 152483.2430461935, 152288.08996535421, -158730.84619412973, -159137.89381240532, 153717.4840232711, -167765.93539308733, 80675.00062882909, 89213.88110087885, -0.13, 0.98, -0.014, 192.0, 0.0, 0.0, 0.0, 0.0, 0.0, 0.0, 0.0, 0.0, 0.0, 1.6961087759726832E9, 0.0, 2023-09-30 16:19:35.972
50.0, 152600.67911156168, 152218.66544707603, -158773.58272952828, -159120.302989519, 153720.94854366168, -167764.92956458684, 80588.23115685358, 89427.89905403841, -0.13, 0.98, -0.014, 192.0, 0.0, 0.0, 0.0, 0.0, 0.0, 0.0, 0.0, 0.0, 0.0, 1.6961087759726949E9, 0.0, 2023-09-30 16:19:35.972
51.0, 152376.13348676366, 151562.59704382386, -158776.8684359632, -159114.22331502716, 153720.21093609463, -167745.26002946615, 80712.23863509162, 89380.82628021554, -0.13, 0.98, -0.014, 192.0, 0.0, 0.0, 0.0, 0.0, 0.0, 0.0, 0.0, 0.0, 0.0, 1.6961087759727066E9, 0.0, 2023-09-30 16:19:35.972
52.0, 152214.99976098535, 151321.48877638445, -158753.35440079623, -159161.09492314994, 153719.31686631643, -167741.37082593094, 80832.71453770573, 89180.75581559609, -0.13, 0.98, -0.014, 192.0, 251.0, 240.0, 30.0, 160.0, 255.0, 144.0, 0.0, 0.0, 0.0, 1.696108775972718E9, 0.0, 2023-09-30 16:19:35.972
53.0, 152374.85943732972, 152094.21093394887, -158730.19799354053, -159153.49533003513, 153722.6919797292, -167767.70118089928, 80689.59631795839, 89178.4982894061, -0.13, 0.98, -0.014, 192.0, 0.0, 0.0, 0.0, 0.0, 0.0, 0.0, 0.0, 0.0, 0.0, 1.6961087759727297E9, 0.0, 2023-09-30 16:19:35.972
54.0, 152576.91920720568, 152311.6487040101, -158762.31745032282, -159150.18727185574, 153723.60840125184, -167773.02089607966, 80536.77744111746, 89381.07214940454, -0.13, 0.98, -0.014, 192.0, 0.0, 0.0, 0.0, 0.0, 0.0, 0.0, 0.0, 0.0, 0.0, 1.6961087759727411E9, 0.0, 2023-09-30 16:19:35.972
55.0, 152366.38812618115, 151605.55709666695, -158768.62064225922, -159133.82579491448, 153719.27216282752, -167750.0433027796, 80620.99881422507, 89383.28497210563, -0.13, 0.98, -0.014, 192.0, 0.0, 0.0, 0.0, 0.0, 0.0, 0.0, 0.0, 0.0, 0.0, 1.6961087759727528E9, 0.0, 2023-09-30 16:19:35.972
56.0, 152186.74715599386, 151274.28189209485, -158745.15131058113, -159123.09695757594, 153715.96410464813, -167742.73428234272, 80744.313388385, 89167.5012311341, -0.13, 0.98, -0.014, 192.0, 0.0, 0.0, 0.0, 0.0, 0.0, 0.0, 0.0, 0.0, 0.0, 1.6961087759727645E9, 0.0, 2023-09-30 16:19:35.972
57.0, 152272.01906109083, 151870.0452888066, -158722.3078277478, -159122.49346047564, 153716.16527034823, -167763.94608783082, 80643.70818659166, 89101.40712277975, -0.13, 0.98, -0.014, 192.0, 0.0, 0.0, 0.0, 0.0, 0.0, 0.0, 0.0, 0.0, 0.0, 1.696108775972776E9, 0.0, 2023-09-30 16:19:35.972
58.0, 152556.7132302181, 152382.03434729986, -158746.15713908162, -159157.6304027594, 153716.25467732607, -167777.02185833716, 80453.56189651035, 89290.41347389383, -0.13, 0.98, -0.014, 192.0, 0.0, 0.0, 0.0, 0.0, 0.0, 0.0, 0.0, 0.0, 0.0, 1.6961087759727895E9, 0.0, 2023-09-30 16:19:35.972
59.0, 152384.69420489005, 151701.58019084696, -158771.81694171633, -159126.8520506444, 153713.41600578022, -167755.67594238234, 80514.44804840662, 89341.24134078519, -0.13, 0.98, -0.014, 192.0, 0.0, 0.0, 0.0, 0.0, 0.0, 0.0, 0.0, 0.0, 0.0, 1.6961087759728012E9, 0.0, 2023-09-30 16:19:35.972
60.0, 152202.84041200168, 151304.88143025417, -158751.05217111734, -159133.065835603, 153712.2313633241, -167746.13174749992, 80658.46033793215, 89129.21269288215, -0.13, 0.98, -0.014, 192.0, 0.0, 0.0, 0.0, 0.0, 0.0, 0.0, 0.0, 0.0, 0.0, 1.696108775972813E9, 0.0, 2023-09-30 16:19:35.972
61.0, 152210.30589464973, 151677.61912079086, -158719.22328701298, -159102.91333233277, 153710.4208720232, -167759.56514591756, 80625.8267910274, 89005.98752570004, -0.13, 0.98, -0.014, 192.0, 0.0, 0.0, 0.0, 0.0, 0.0, 0.0, 0.0, 0.0, 0.0, 1.6961087759728248E9, 0.0, 2023-09-30 16:19:35.972
62.0, 152531.07577932786, 152422.75922569743, -158743.85490940273, -159160.2679086051, 153717.0816918709, -167785.2473002967, 80424.12464906272, 89162.06975723145, -0.126, 0.98, -0.018000000000000002, 192.0, 252.0, 16.0, 30.0, 160.0, 255.0, 112.0, 0.0, 0.0, 0.0, 1.6961087759728365E9, 0.0, 2023-09-30 16:19:35.972
63.0, 152415.718426194, 151806.8792589759, -158773.78389522838, -159119.87830637436, 153716.0311598815, -167766.80711112107, 80457.69696923459, 89266.9217904713, -0.126, 0.98, -0.018000000000000002, 192.0, 0.0, 0.0, 0.0, 0.0, 0.0, 0.0, 0.0, 0.0, 0.0, 1.696108775972849E9, 0.0, 2023-09-30 16:19:35.972
64.0, 152219.3359994097, 151337.53732890336, -158756.68481072006, -159152.78007421258, 153713.75128194707, -167752.52434641414, 80610.78406700898, 89083.30220977095, -0.126, 0.98, -0.018000000000000002, 192.0, 0.0, 0.0, 0.0, 0.0, 0.0, 0.0, 0.0, 0.0, 0.0, 1.6961087759728608E9, 0.0, 2023-09-30 16:19:35.972
65.0, 152150.40321950952, 151504.57191521788, -158730.5109179629, -159103.33801547743, 153713.34895054688, -167760.88389884043, 80633.7840120535, 88923.08490551531, -0.126, 0.98, -0.018000000000000002, 192.0, 0.0, 0.0, 0.0, 0.0, 0.0, 0.0, 0.0, 0.0, 0.0, 1.6961087759728725E9, 0.0, 2023-09-30 16:19:35.972
66.0, 152449.22369113253, 152376.73698386396, -158731.29322901883, -159156.40105681433, 153716.7240639596, -167787.08014334206, 80418.89434086018, 89041.14681972824, -0.126, 0.98, -0.018000000000000002, 192.0, 0.0, 0.0, 0.0, 0.0, 0.0, 0.0, 0.0, 0.0, 0.0, 1.6961087759728837E9, 0.0, 2023-09-30 16:19:35.972
67.0, 152382.43667870006, 151878.62835867744, -158770.05115390435, -159122.06877733098, 153715.025331381, -167771.97036409026, 80395.67087837111, 89202.5040629511, -0.126, 0.98, -0.018000000000000002, 192.0, 0.0, 0.0, 0.0, 0.0, 0.0, 0.0, 0.0, 0.0, 0.0, 1.6961087759728951E9, 0.0, 2023-09-30 16:19:35.972
68.0, 152164.44011502745, 151331.21178522252, -158754.11436010772, -159137.37972228287, 153711.49375575708, -167753.03843653662, 80530.11662126979, 89078.36247424633, -0.126, 0.98, -0.018000000000000002, 192.0, 0.0, 0.0, 0.0, 0.0, 0.0, 0.0, 0.0, 0.0, 0.0, 1.6961087759729073E9, 0.0, 2023-09-30 16:19:35.972
69.0, 152046.66877349245, 151312.27985766888, -158727.04639757233, -159077.52175063154, 153706.55402023246, -167750.57974464653, 80585.70540973013, 88905.91876577363, -0.126, 0.98, -0.018000000000000002, 192.0, 0.0, 0.0, 0.0, 0.0, 0.0, 0.0, 0.0, 0.0, 0.0, 1.6961087759729185E9, 0.0, 2023-09-30 16:19:35.972
70.0, 152331.38529436415, 152245.46518867795, -158729.7733103959, -159141.89477466283, 153714.6900552142, -167782.2968700286, 80388.13834048968, 88993.67171450517, -0.126, 0.98, -0.018000000000000002, 192.0, 0.0, 0.0, 0.0, 0.0, 0.0, 0.0, 0.0, 0.0, 0.0, 1.696108775972931E9, 0.0, 2023-09-30 16:19:35.972
71.0, 152391.0644520598, 152009.90015386345, -158774.61090977324, -159115.72088190567, 153716.6346569818, -167775.56899494756, 80323.09476412473, 89196.51379543707, -0.126, 0.98, -0.018000000000000002, 192.0, 0.0, 0.0, 0.0, 0.0, 0.0, 0.0, 0.0, 0.0, 0.0, 1.6961087759729426E9, 0.0, 2023-09-30 16:19:35.972
72.0, 152179.50519079034, 151405.33016983632, -158768.08420039227, -159130.0483501015, 153713.70657845816, -167753.9995615482, 80455.97588491153, 89128.05040217047, -0.126, 0.98, -0.018000000000000002, 192.0, 0.0, 0.0, 0.0, 0.0, 0.0, 0.0, 0.0, 0.0, 0.0, 1.6961087759729545E9, 0.0, 2023-09-30 16:19:35.972
73.0, 152048.72513398234, 151245.71636268098, -158742.7820256689, -159129.2660390456, 153712.8795639133, -167750.37857894643, 80568.44986301064, 88942.4415162136, -0.12, 0.98, -0.02, 192.0, 252.0, 64.0, 30.0, 160.0, 255.0, 96.0, 0.0, 0.0, 0.0, 1.696108775972966E9, 0.0, 2023-09-30 16:19:35.972
74.0, 152292.18033458953, 152125.5033761863, -158729.14746155113, -159147.75093171012, 153717.5734302489, -167778.92175661586, 80417.84380887078, 88969.97886538254, -0.12, 0.98, -0.02, 192.0, 0.0, 0.0, 0.0, 0.0, 0.0, 0.0, 0.0, 0.0, 0.0, 1.6961087759729776E9, 0.0, 2023-09-30 16:19:35.972
75.0, 152458.81258950385, 152160.93089114796, -158768.68769749257, -159141.89477466283, 153718.8251279384, -167779.7934746496, 80318.40089778912, 89171.50219339159, -0.12, 0.98, -0.02, 192.0, 0.0, 0.0, 0.0, 0.0, 0.0, 0.0, 0.0, 0.0, 0.0, 1.696108775972989E9, 0.0, 2023-09-30 16:19:35.972
76.0, 152246.1357410116, 151490.7585371445, -158770.74405798246, -159131.0988820909, 153714.0865581139, -167755.58653540452, 80451.17025985364, 89141.52850407702, -0.12, 0.98, -0.02, 192.0, 0.0, 0.0, 0.0, 0.0, 0.0, 0.0, 0.0, 0.0, 0.0, 1.6961087759730012E9, 0.0, 2023-09-30 16:19:35.973
77.0, 152091.12639321404, 151225.8903653491, -158746.49241524845, -159123.56634420948, 153711.3372935459, -167746.2435062222, 80597.06009591343, 88942.48621970252, -0.12, 0.98, -0.02, 192.0, 0.0, 0.0, 0.0, 0.0, 0.0, 0.0, 0.0, 0.0, 0.0, 1.6961087759730127E9, 0.0, 2023-09-30 16:19:35.973
78.0, 152243.72175261044, 151951.15976943492, -158727.0240458279, -159128.37196926738, 153716.4781947706, -167772.21623327926, 80487.73771378252, 88935.33366147682, -0.12, 0.98, -0.02, 192.0, 0.0, 0.0, 0.0, 0.0, 0.0, 0.0, 0.0, 0.0, 0.0, 1.6961087759730244E9, 0.0, 2023-09-30 16:19:35.973
79.0, 152499.22454347904, 152281.83147690672, -158759.16585435462, -159148.15326311032, 153718.1769273492, -167781.15693106138, 80331.27550259537, 89161.801536298, -0.12, 0.98, -0.02, 192.0, 0.0, 0.0, 0.0, 0.0, 0.0, 0.0, 0.0, 0.0, 0.0, 1.696108775973036E9, 0.0, 2023-09-30 16:19:35.973
80.0, 152306.77602371885, 151583.6300353563, -158775.25911036244, -159119.8559546299, 153712.96897089112, -167756.92764007184, 80419.18491353809, 89199.88890884983, -0.12, 0.98, -0.02, 192.0, 0.0, 0.0, 0.0, 0.0, 0.0, 0.0, 0.0, 0.0, 0.0, 1.6961087759730532E9, 0.0, 2023-09-30 16:19:35.973
81.0, 152141.68603917194, 151248.8456069047, -158754.0696566188, -159141.1571670958, 153709.9291336452, -167744.1871457323, 80567.55579323242, 88999.79609248592, -0.12, 0.98, -0.02, 192.0, 0.0, 0.0, 0.0, 0.0, 0.0, 0.0, 0.0, 0.0, 0.0, 1.6961087759730654E9, 0.0, 2023-09-30 16:19:35.973
82.0, 152214.7315400519, 151796.1280698929, -158731.18147029658, -159115.74323365014, 153713.90774415823, -167764.5495849311, 80505.08266747984, 88928.18110325112, -0.12, 0.98, -0.02, 192.0, 0.0, 0.0, 0.0, 0.0, 0.0, 0.0, 0.0, 0.0, 0.0, 1.6961087759730775E9, 0.0, 2023-09-30 16:19:35.973
83.0, 152533.86974738477, 152424.8379379318, -158755.00842988593, -159156.8704434479, 153719.92036341672, -167784.9567276188, 80317.84210417773, 89130.59850103837, -0.122, 0.978, -0.026000000000000002, 192.0, 252.0, 48.0, 30.0, 144.0, 255.0, 48.0, 0.0, 0.0, 0.0, 1.69610877597309E9, 0.0, 2023-09-30 16:19:35.973
84.0, 152393.72430965, 151774.40217428235, -158782.70224126606, -159107.69660564623, 153716.7240639596, -167763.45434945278, 80379.15293921863, 89243.20658960422, -0.122, 0.978, -0.026000000000000002, 192.0, 0.0, 0.0, 0.0, 0.0, 0.0, 0.0, 0.0, 0.0, 0.0, 1.6961087759731023E9, 0.0, 2023-09-30 16:19:35.973
85.0, 152224.00751400084, 151376.69758518907, -158770.49818879346, -159166.14641739684, 153717.8863546713, -167750.62444813544, 80540.48783069705, 89094.41102676524, -0.122, 0.978, -0.026000000000000002, 192.0, 0.0, 0.0, 0.0, 0.0, 0.0, 0.0, 0.0, 0.0, 0.0, 1.6961087759731143E9, 0.0, 2023-09-30 16:19:35.973
86.0, 152229.30487743675, 151703.68125482576, -158742.44674950204, -159122.13583256435, 153719.40627329424, -167761.55445117407, 80545.80754587741, 89016.60460431631, -0.122, 0.978, -0.026000000000000002, 192.0, 0.0, 0.0, 0.0, 0.0, 0.0, 0.0, 0.0, 0.0, 0.0, 1.696108775973127E9, 0.0, 2023-09-30 16:19:35.973
87.0, 152587.37982361077, 152544.24095681202, -158755.70133396404, -159159.93263243826, 153726.02238965302, -167786.7001636863, 80358.6116860642, 89210.64009793283, -0.122, 0.978, -0.026000000000000002, 192.0, 0.0, 0.0, 0.0, 0.0, 0.0, 0.0, 0.0, 0.0, 0.0, 1.6961087759731393E9, 0.0, 2023-09-30 16:19:35.973
88.0, 152528.81825313787, 151979.70294710435, -158788.89367448018, -159105.88611434534, 153724.25660184104, -167766.65064890988, 80397.25785222744, 89370.72329172175, -0.122, 0.978, -0.026000000000000002, 192.0, 0.0, 0.0, 0.0, 0.0, 0.0, 0.0, 0.0, 0.0, 0.0, 1.6961087759731524E9, 0.0, 2023-09-30 16:19:35.973
89.0, 152359.97317552246, 151494.4018714907, -158778.14248539717, -159153.7188474797, 153722.64727624028, -167750.0433027796, 80572.09319735685, 89222.59828121643, -0.122, 0.978, -0.026000000000000002, 192.0, 0.0, 0.0, 0.0, 0.0, 0.0, 0.0, 0.0, 0.0, 0.0, 1.6961087759731662E9, 0.0, 2023-09-30 16:19:35.973
90.0, 152297.27653232534, 151597.59987564085, -158748.9287553941, -159148.4214840438, 153722.5802210069, -167757.03939879412, 80627.79374453948, 89071.03110206498, -0.122, 0.978, -0.026000000000000002, 192.0, 0.0, 0.0, 0.0, 0.0, 0.0, 0.0, 0.0, 0.0, 0.0, 1.69610877597318E9, 0.0, 2023-09-30 16:19:35.973
91.0, 152613.03962624547, 152523.63264842425, -158746.5818222263, -159178.41752510282, 153728.034046654, -167787.81775090907, 80429.86904738774, 89203.42048447377, -0.122, 0.978, -0.026000000000000002, 192.0, 0.0, 0.0, 0.0, 0.0, 0.0, 0.0, 0.0, 0.0, 0.0, 1.6961087759731936E9, 0.0, 2023-09-30 16:19:35.973
92.0, 152605.68590231967, 152123.08938778512, -158783.86453197774, -159140.03957987303, 153725.21772685263, -167775.32312575856, 80414.69221290258, 89410.48704510773, -0.122, 0.978, -0.026000000000000002, 192.0, 0.0, 0.0, 0.0, 0.0, 0.0, 0.0, 0.0, 0.0, 0.0, 1.696108775973208E9, 0.0, 2023-09-30 16:19:35.973
93.0, 152390.4609549595, 151554.19278790866, -158776.55551154085, -159161.4749028057, 153722.9825524071, -167756.92764007184, 80582.12913061728, 89316.98969805118, -0.128, 0.976, -0.022, 192.0, 252.0, 0.0, 30.0, 128.0, 255.0, 80.0, 0.0, 0.0, 0.0, 1.6961087759732225E9, 0.0, 2023-09-30 16:19:35.973
94.0, 152277.1376105711, 151492.27845576746, -158754.9190229081, -159114.73740514964, 153724.52482277452, -167758.38050346143, 80699.20756807418, 89151.81030652646, -0.128, 0.976, -0.022, 192.0, 0.0, 0.0, 0.0, 0.0, 0.0, 0.0, 0.0, 0.0, 0.0, 1.6961087759732375E9, 0.0, 2023-09-30 16:19:35.973
95.0, 152565.07278264436, 152441.28882185087, -158744.5701652253, -159162.4136760728, 153727.87758444282, -167785.96255611928, 80545.15934528821, 89236.63517673436, -0.128, 0.976, -0.022, 192.0, 0.0, 0.0, 0.0, 0.0, 0.0, 0.0, 0.0, 0.0, 0.0, 1.6961087759732516E9, 0.0, 2023-09-30 16:19:35.973
96.0, 152661.09587682437, 152298.39411954812, -158783.14927615516, -159146.45453053172, 153727.788177465, -167780.21815779427, 80483.35677186928, 89449.98257756027, -0.128, 0.976, -0.022, 192.0, 0.0, 0.0, 0.0, 0.0, 0.0, 0.0, 0.0, 0.0, 0.0, 1.6961087759732661E9, 0.0, 2023-09-30 16:19:35.973
97.0, 152430.09059787876, 151642.3480680404, -158778.54481679737, -159147.92974566578, 153724.41306405223, -167758.55931741706, 80621.49055260308, 89398.73002752425, -0.128, 0.976, -0.022, 192.0, 0.0, 0.0, 0.0, 0.0, 0.0, 0.0, 0.0, 0.0, 0.0, 1.696108775973281E9, 0.0, 2023-09-30 16:19:35.973
98.0, 152284.4019275191, 151437.11435045177, -158758.24943283194, -159141.6712572183, 153725.4859477861, -167756.72647437174, 80746.32504538597, 89204.6051269299, -0.128, 0.976, -0.022, 192.0, 0.0, 0.0, 0.0, 0.0, 0.0, 0.0, 0.0, 0.0, 0.0, 1.6961087759732952E9, 0.0, 2023-09-30 16:19:35.973
99.0, 152496.36352018875, 152275.90826462608, -158740.39038901214, -159163.79948422904, 153730.40333156625, -167785.58257646355, 80608.16891290771, 89221.63715620484, -0.128, 0.976, -0.022, 192.0, 0.0, 0.0, 0.0, 0.0, 0.0, 0.0, 0.0, 0.0, 0.0, 1.6961087759733095E9, 0.0, 2023-09-30 16:19:35.973
100.0, 152698.31153134245, 152429.0847693783, -158776.44375281857, -159162.01134467262, 153733.040837412, -167790.87993989946, 80484.34024862532, 89443.54527515713, -0.128, 0.976, -0.022, 192.0, 0.0, 0.0, 0.0, 0.0, 0.0, 0.0, 0.0, 0.0, 0.0, 1.6961087759733233E9, 0.0, 2023-09-30 16:19:35.973
101.0, 152480.5384851144, 151712.3090281855, -158780.51177030944, -159152.33303932348, 153727.47525304262, -167766.65064890988, 80590.04164815447, 89439.14198149944, -0.128, 0.976, -0.022, 192.0, 0.0, 0.0, 0.0, 0.0, 0.0, 0.0, 0.0, 0.0, 0.0, 1.696108775973342E9, 0.0, 2023-09-30 16:19:35.973
102.0, 152298.50587827037, 151380.85500965774, -158754.4272845301, -159120.86178313039, 153724.36836056333, -167758.67107613935, 80714.58556825943, 89224.34171728394, -0.128, 0.976, -0.022, 192.0, 0.0, 0.0, 0.0, 0.0, 0.0, 0.0, 0.0, 0.0, 0.0, 1.6961087759733586E9, 0.0, 2023-09-30 16:19:35.973
103.0, 152383.80013511184, 152006.0780055616, -158737.14938606613, -159153.0706468905, 153726.20120360865, -167783.72738167376, 80595.49547380155, 89170.85399280238, -0.126, 0.978, -0.024, 192.0, 252.0, 16.0, 30.0, 144.0, 255.0, 64.0, 0.0, 0.0, 0.0, 1.6961087759733746E9, 0.0, 2023-09-30 16:19:35.973
104.0, 152615.028931502, 152417.05953086133, -158760.84223518876, -159186.821781018, 153722.289648329, -167798.03249812516, 80400.40944819564, 89357.82633517103, -0.126, 0.978, -0.024, 192.0, 0.0, 0.0, 0.0, 0.0, 0.0, 0.0, 0.0, 0.0, 0.0, 1.696108775973392E9, 0.0, 2023-09-30 16:19:35.973
105.0, 152384.00130081194, 151683.78820226053, -158776.220235374, -159163.71007725122, 153696.40632824975, -167775.7478089032, 80454.52302152193, 89401.14401592541, -0.126, 0.978, -0.024, 192.0, 0.0, 0.0, 0.0, 0.0, 0.0, 0.0, 0.0, 0.0, 0.0, 1.6961087759734075E9, 0.0, 2023-09-30 16:19:35.973
106.0, 152169.75983020783, 151284.8542672222, -158754.04730487434, -159112.99396908213, 153704.58706672039, -167765.51070994267, 80579.58103174937, 89184.08622551993, -0.126, 0.978, -0.024, 192.0, 0.0, 0.0, 0.0, 0.0, 0.0, 0.0, 0.0, 0.0, 0.0, 1.6961087759734218E9, 0.0, 2023-09-30 16:19:35.973
107.0, 152182.47797280288, 151731.12919701688, -158738.53519422238, -159135.39041702636, 153713.25954356903, -167782.4980357287, 80513.62103386177, 89060.79400310446, -0.126, 0.978, -0.024, 192.0, 0.0, 0.0, 0.0, 0.0, 0.0, 0.0, 0.0, 0.0, 0.0, 1.696108775973442E9, 0.0, 2023-09-30 16:19:35.973
108.0, 152497.63756962272, 152432.77280721342, -158751.25333681743, -159184.5195513391, 153700.34023527388, -167803.68748947233, 80298.48549347944, 89226.21926381819, -0.126, 0.978, -0.024, 192.0, 0.0, 0.0, 0.0, 0.0, 0.0, 0.0, 0.0, 0.0, 0.0, 1.696108775973466E9, 0.0, 2023-09-30 16:19:35.973
109.0, 152352.68650683004, 151774.78215393808, -158777.0696016633, -159147.08037937648, 153637.53183335447, -167779.25703278268, 80320.52431351237, 89332.1888842808, -0.126, 0.978, -0.024, 192.0, 0.0, 0.0, 0.0, 0.0, 0.0, 0.0, 0.0, 0.0, 0.0, 1.696108775973493E9, 0.0, 2023-09-30 16:19:35.973
110.0, 152139.5179199598, 151297.0136162059, -158755.20959558603, -159127.07556808897, 153641.9574787566, -167762.56027967457, 80452.55606800987, 89160.50513511957, -0.126, 0.978, -0.024, 192.0, 0.0, 0.0, 0.0, 0.0, 0.0, 0.0, 0.0, 0.0, 0.0, 1.6961087759735217E9, 0.0, 2023-09-30 16:19:35.973
111.0, 152095.90966652747, 151512.3056187994, -158738.19991805553, -159088.58586413693, 153658.25190046453, -167774.4514077248, 80446.02935862892, 89032.94372951314, -0.126, 0.978, -0.024, 192.0, 0.0, 0.0, 0.0, 0.0, 0.0, 0.0, 0.0, 0.0, 0.0, 1.696108775973556E9, 0.0, 2023-09-30 16:19:35.973
112.0, 152445.40154283066, 152391.5114869489, -158747.83351991576, -159164.78296098506, 153659.03421152045, -167802.79341969412, 80235.56533283775, 89191.88698433484, -0.126, 0.978, -0.024, 192.0, 0.0, 0.0, 0.0, 0.0, 0.0, 0.0, 0.0, 0.0, 0.0, 1.696108775973588E9, 0.0, 2023-09-30 16:19:35.973
113.0, 152401.39095799817, 151878.4048412329, -158788.8713227357, -159117.41961448427, 153616.4094348442, -167788.13067533146, 80239.65570207307, 89365.60474224147, -0.126, 0.978, -0.024, 192.0, 0.0, 0.0, 0.0, 0.0, 0.0, 0.0, 0.0, 0.0, 0.0, 1.6961087759736285E9, 0.0, 2023-09-30 16:19:35.973
114.0, 152211.55759233923, 151372.54016072038, -158780.55647379835, -159165.00647842963, 153629.57461232838, -167773.04324782413, 80394.95562254854, 89241.6643192368, -0.122, 0.986, -0.026000000000000002, 192.0, 252.0, 48.0, 30.0, 208.0, 255.0, 48.0, 0.0, 0.0, 0.0, 1.6961087759736495E9, 0.0, 2023-09-30 16:19:35.973
115.0, 152143.02714383928, 151437.9413649966, -158758.78587469886, -159163.26304236212, 153673.80871460543, -167777.96063160428, 80466.07887340533, 89087.95137261765, -0.122, 0.986, -0.026000000000000002, 192.0, 0.0, 0.0, 0.0, 0.0, 0.0, 0.0, 0.0, 0.0, 0.0, 1.6961087759736712E9, 0.0, 2023-09-30 16:19:35.973
116.0, 152481.3878514037, 152412.65623720363, -158748.8169966718, -159173.72365876718, 153693.36649100384, -167808.69428023032, 80278.88301359213, 89198.19017627122, -0.122, 0.986, -0.026000000000000002, 192.0, 0.0, 0.0, 0.0, 0.0, 0.0, 0.0, 0.0, 0.0, 0.0, 1.696108775973694E9, 0.0, 2023-09-30 16:19:35.973
0.0, 0.0, 0.0, 0.0, 0.0, 0.0, 0.0, 0.0, 0.0, -0.11800000000000001, 0.988, -0.008, 192.0, 252.0, 80.0, 30.0, 224.0, 255.0, 192.0, 0.0, 0.0, 0.0, 1.696108776087679E9, 0.0, 2023-09-30 16:19:36.087
1.0, 144195.6855887992, 144154.96071040162, -148430.31298283493, -152803.49884074915, 144274.54254323753, -161772.5833383302, 103892.271684679, -182302.95119320767, -0.11800000000000001, 0.988, -0.008, 192.0, 0.0, 0.0, 0.0, 0.0, 0.0, 0.0, 0.0, 0.0, 0.0, 1.696108776087724E9, 0.0, 2023-09-30 16:19:36.087
2.0, 144192.91397248674, 144152.14439060027, -148420.74643620808, -152680.0948596114, 144271.86033390288, -161752.3773613426, 103979.77876422153, -182305.94632696468, -0.11800000000000001, 0.988, -0.008, 192.0, 0.0, 0.0, 0.0, 0.0, 0.0, 0.0, 0.0, 0.0, 0.0, 1.6961087761561687E9, 0.0, 2023-09-30 16:19:36.156
3.0, 144189.11417592934, 144148.3222422984, -148407.6259622128, -152774.55333167952, 144268.03818560104, -161751.7738642423, 103996.27435162954, -182315.3340596359, -0.11800000000000001, 0.988, -0.008, 192.0, 0.0, 0.0, 0.0, 0.0, 0.0, 0.0, 0.0, 0.0, 0.0, 1.6961087761561956E9, 0.0, 2023-09-30 16:19:36.156
4.0, 144194.14331843177, 144153.6196057343, -148403.44618599967, -152995.79089829815, 144272.95556938119, -161782.28399542382, 103858.34173659584, -182331.24850168807, -0.11800000000000001, 0.988, -0.008, 192.0, 0.0, 0.0, 0.0, 0.0, 0.0, 0.0, 0.0, 0.0, 0.0, 1.696108776156211E9, 0.0, 2023-09-30 16:19:36.156
5.0, 144196.55730683295, 144155.98889064658, -148426.1332066218, -152827.70577999423, 144275.39190952684, -161774.3938296311, 103839.45451253111, -182331.27085343254, -0.11800000000000001, 0.988, -0.008, 192.0, 0.0, 0.0, 0.0, 0.0, 0.0, 0.0, 0.0, 0.0, 0.0, 1.6961087761562254E9, 0.0, 2023-09-30 16:19:36.156
6.0, 144193.27160039803, 144152.43496327818, -148424.8368054434, -152660.44767623517, 144272.1509065808, -161751.0362566753, 103929.3308769859, -182331.18144645472, -0.11800000000000001, 0.988, -0.008, 192.0, 0.0, 0.0, 0.0, 0.0, 0.0, 0.0, 0.0, 0.0, 0.0, 1.6961087761562388E9, 0.0, 2023-09-30 16:19:36.156
7.0, 144187.70601602865, 144146.9140823977, -148407.2683343015, -152715.16474666176, 144266.67472918925, -161743.1237391381, 103980.18109562172, -182338.22224595814, -0.11800000000000001, 0.988, -0.008, 192.0, 0.0, 0.0, 0.0, 0.0, 0.0, 0.0, 0.0, 0.0, 0.0, 1.6961087761562512E9, 0.0, 2023-09-30 16:19:36.156
8.0, 144189.80708000745, 144149.39512603226, -148395.04193008447, -152950.68507798732, 144268.64168270133, -161770.16934992903, 103862.58856804235, -182353.39908044328, -0.112, 0.986, 0.0, 192.0, 252.0, 128.0, 30.0, 208.0, 0.0, 0.0, 0.0, 0.0, 0.0, 1.6961087761562648E9, 0.0, 2023-09-30 16:19:36.156
9.0, 144192.7351585311, 144152.25614932255, -148419.025351885, -152852.22564366172, 144271.48035424715, -161769.72231503992, 103819.36029426579, -182356.46126943367, -0.112, 0.986, 0.0, 192.0, 0.0, 0.0, 0.0, 0.0, 0.0, 0.0, 0.0, 0.0, 0.0, 1.6961087761562784E9, 0.0, 2023-09-30 16:19:36.156
10.0, 144188.84595499586, 144148.14342834277, -148417.5277850065, -152650.29998425246, 144267.65820594528, -161744.06251240522, 103902.8217080619, -182355.0978130219, -0.112, 0.986, 0.0, 192.0, 0.0, 0.0, 0.0, 0.0, 0.0, 0.0, 0.0, 0.0, 0.0, 1.6961087761562915E9, 0.0, 2023-09-30 16:19:36.156
11.0, 144183.05685318194, 144142.33197478438, -148402.5744679659, -152674.17164733072, 144261.89145587583, -161732.05962563274, 103974.88373218582, -182363.61382765937, -0.112, 0.986, 0.0, 192.0, 0.0, 0.0, 0.0, 0.0, 0.0, 0.0, 0.0, 0.0, 0.0, 1.6961087761563048E9, 0.0, 2023-09-30 16:19:36.156
12.0, 144183.21331539314, 144142.71195444014, -148393.56671495043, -152905.17692627633, 144262.04791808702, -161754.56783229922, 103880.76053628452, -182379.64002843382, -0.112, 0.986, 0.0, 192.0, 0.0, 0.0, 0.0, 0.0, 0.0, 0.0, 0.0, 0.0, 0.0, 1.6961087761563177E9, 0.0, 2023-09-30 16:19:36.156
13.0, 144185.9849317056, 144145.3718120303, -148406.1283953343, -152890.7376993582, 144264.64072044383, -161761.40746610254, 103812.29714301792, -182386.97140061515, -0.112, 0.986, 0.0, 192.0, 0.0, 0.0, 0.0, 0.0, 0.0, 0.0, 0.0, 0.0, 0.0, 1.69610877615633E9, 0.0, 2023-09-30 16:19:36.156
14.0, 144182.92274271522, 144142.019050362, -148411.93984889268, -152657.74311515607, 144261.6008831979, -161734.74183496737, 103897.14436497026, -182386.3455517704, -0.112, 0.986, 0.0, 192.0, 0.0, 0.0, 0.0, 0.0, 0.0, 0.0, 0.0, 0.0, 0.0, 1.6961087761563425E9, 0.0, 2023-09-30 16:19:36.156
15.0, 144179.32411185792, 144138.4204195047, -148403.4685377441, -152638.96764981363, 144258.13636280733, -161720.10144234914, 103998.17424990825, -182395.84504316392, -0.112, 0.986, 0.0, 192.0, 0.0, 0.0, 0.0, 0.0, 0.0, 0.0, 0.0, 0.0, 0.0, 1.696108776156355E9, 0.0, 2023-09-30 16:19:36.156
16.0, 144178.92178045772, 144138.26395729353, -148381.4744212001, -152833.8748614639, 144257.73403140713, -161737.04406464627, 103951.16853131873, -182410.79836020453, -0.112, 0.986, 0.0, 192.0, 0.0, 0.0, 0.0, 0.0, 0.0, 0.0, 0.0, 0.0, 0.0, 1.6961087761563668E9, 0.0, 2023-09-30 16:19:36.156
17.0, 144183.14626015976, 144142.57784397338, -148401.50158423206, -152889.4412981798, 144261.802048898, -161753.69611426548, 103869.20468440112, -182421.4601423097, -0.112, 0.986, 0.0, 192.0, 0.0, 0.0, 0.0, 0.0, 0.0, 0.0, 0.0, 0.0, 0.0, 1.6961087761719518E9, 0.0, 2023-09-30 16:19:36.171
18.0, 144182.31924561493, 144141.5720154729, -148419.09240711838, -152625.780120585, 144261.01973784206, -161731.09850062116, 103953.18018831972, -182420.67783125376, -0.114, 0.982, -0.002, 192.0, 252.0, 112.0, 30.0, 176.0, 255.0, 240.0, 0.0, 0.0, 0.0, 1.6961087763581657E9, 0.0, 2023-09-30 16:19:36.358
19.0, 144180.70992001414, 144139.94033812766, -148415.04674137197, -152549.001878381, 144259.56687445246, -161716.36870102512, 104086.70950969572, -182429.8643982249, -0.114, 0.982, -0.002, 192.0, 0.0, 0.0, 0.0, 0.0, 0.0, 0.0, 0.0, 0.0, 0.0, 1.6961087763581908E9, 0.0, 2023-09-30 16:19:36.358
20.0, 144182.1404316593, 144141.6167189618, -148398.43939524167, -152683.6934904687, 144260.99738609762, -161730.15972735404, 104097.81832669, -182444.23656990964, -0.114, 0.982, -0.002, 192.0, 0.0, 0.0, 0.0, 0.0, 0.0, 0.0, 0.0, 0.0, 0.0, 1.6961087763582053E9, 0.0, 2023-09-30 16:19:36.358
21.0, 144187.25898113954, 144146.98113763108, -148404.04968309996, -152797.4638697462, 144265.93712162224, -161754.0313904323, 104013.68636056023, -182453.98193049215, -0.114, 0.982, -0.002, 192.0, 0.0, 0.0, 0.0, 0.0, 0.0, 0.0, 0.0, 0.0, 0.0, 1.696108776358218E9, 0.0, 2023-09-30 16:19:36.358
22.0, 144186.72253927262, 144146.15412308625, -148425.86498568833, -152532.7074566731, 144265.46773498866, -161732.88664017757, 104083.82613466098, -182445.4659158547, -0.114, 0.982, -0.002, 192.0, 0.0, 0.0, 0.0, 0.0, 0.0, 0.0, 0.0, 0.0, 0.0, 1.69610877635823E9, 0.0, 2023-09-30 16:19:36.358
23.0, 144183.86151598234, 144143.1142858403, -148415.56083149445, -152417.64067621718, 144262.69611867622, -161712.68066318997, 104211.4992989897, -182443.5213140871, -0.114, 0.982, -0.002, 192.0, 0.0, 0.0, 0.0, 0.0, 0.0, 0.0, 0.0, 0.0, 0.0, 1.696108776358242E9, 0.0, 2023-09-30 16:19:36.358
24.0, 144182.92274271522, 144142.24256780656, -148396.69595917416, -152523.47618621305, 144261.75734540907, -161717.12866033657, 104236.33208707954, -182449.13160194535, -0.114, 0.982, -0.002, 192.0, 0.0, 0.0, 0.0, 0.0, 0.0, 0.0, 0.0, 0.0, 0.0, 1.6961087763582537E9, 0.0, 2023-09-30 16:19:36.358
25.0, 144186.29785612796, 144145.93060564168, -148394.93017136218, -152708.16865064725, 144264.97599661065, -161743.23549786038, 104118.85131822244, -182456.820602038, -0.114, 0.982, -0.002, 192.0, 0.0, 0.0, 0.0, 0.0, 0.0, 0.0, 0.0, 0.0, 0.0, 1.6961087763582652E9, 0.0, 2023-09-30 16:19:36.358
26.0, 144184.71088227164, 144144.18716957417, -148413.63858147128, -152497.57051438934, 144263.47842973215, -161726.29287556326, 104132.44117885128, -182450.1150787014, -0.114, 0.982, -0.002, 192.0, 0.0, 0.0, 0.0, 0.0, 0.0, 0.0, 0.0, 0.0, 0.0, 1.6961087763582768E9, 0.0, 2023-09-30 16:19:36.358
27.0, 144179.77114674702, 144139.00156486055, -148404.98845636708, -152367.57276863727, 144258.60574944087, -161703.00235784083, 104229.96183990978, -182449.64569206783, -0.114, 0.982, -0.002, 192.0, 0.0, 0.0, 0.0, 0.0, 0.0, 0.0, 0.0, 0.0, 0.0, 1.6961087763582883E9, 0.0, 2023-09-30 16:19:36.358
28.0, 144177.20069613465, 144136.43111424817, -148393.49965971705, -152459.37138311524, 144255.96824359515, -161702.13063980706, 104267.26690140569, -182459.7710323061, -0.114, 0.992, 0.002, 192.0, 252.0, 112.0, 31.0, 0.0, 0.0, 16.0, 0.0, 0.0, 0.0, 1.6961087763582995E9, 0.0, 2023-09-30 16:19:36.358
29.0, 144178.541800802, 144138.06279159343, -148386.45886021364, -152698.87032495384, 144257.24229302912, -161729.64563723156, 104139.37021963242, -182474.09850050195, -0.114, 0.992, 0.002, 192.0, 0.0, 0.0, 0.0, 0.0, 0.0, 0.0, 0.0, 0.0, 0.0, 1.6961087763583114E9, 0.0, 2023-09-30 16:19:36.358
30.0, 144181.02284443652, 144140.49913173905, -148408.00594186856, -152561.1165238758, 144259.79039189703, -161724.5717912402, 104112.43636756377, -182477.3171517035, -0.114, 0.992, 0.002, 192.0, 0.0, 0.0, 0.0, 0.0, 0.0, 0.0, 0.0, 0.0, 0.0, 1.6961087763583229E9, 0.0, 2023-09-30 16:19:36.358
31.0, 144177.4912688126, 144136.74403867056, -148400.49575573156, -152399.6698736751, 144256.23646452863, -161701.8624188736, 104190.13103129042, -182478.47944241518, -0.114, 0.992, 0.002, 192.0, 0.0, 0.0, 0.0, 0.0, 0.0, 0.0, 0.0, 0.0, 0.0, 1.6961087763583343E9, 0.0, 2023-09-30 16:19:36.358
32.0, 144170.785745476, 144130.06086707843, -148386.43650846917, -152459.75136277097, 144249.53094119203, -161693.7263838919, 104232.06290388858, -182483.75445410665, -0.114, 0.992, 0.002, 192.0, 0.0, 0.0, 0.0, 0.0, 0.0, 0.0, 0.0, 0.0, 0.0, 1.696108776358346E9, 0.0, 2023-09-30 16:19:36.358
33.0, 144172.7303472436, 144132.20663454614, -148381.20620026664, -152713.42131059425, 144251.36378423736, -161723.18598308397, 104098.39947204584, -182496.0702653015, -0.114, 0.992, 0.002, 192.0, 0.0, 0.0, 0.0, 0.0, 0.0, 0.0, 0.0, 0.0, 0.0, 1.696108776358358E9, 0.0, 2023-09-30 16:19:36.358
34.0, 144172.46212631013, 144131.82665489038, -148388.78344163697, -152657.09491456687, 144251.14026679282, -161725.53291625177, 104018.42493038476, -182494.30447748955, -0.114, 0.992, 0.002, 192.0, 0.0, 0.0, 0.0, 0.0, 0.0, 0.0, 0.0, 0.0, 0.0, 1.6961087763583694E9, 0.0, 2023-09-30 16:19:36.358
35.0, 144169.2211233641, 144128.31743101092, -148395.33250276238, -152458.49966508147, 144248.03337431353, -161703.60585494112, 104077.18766655776, -182491.5105094326, -0.114, 0.992, 0.002, 192.0, 0.0, 0.0, 0.0, 0.0, 0.0, 0.0, 0.0, 0.0, 0.0, 1.6961087763583813E9, 0.0, 2023-09-30 16:19:36.358
36.0, 144167.65650125223, 144126.79751238794, -148389.14106954826, -152472.5812640883, 144246.53580743502, -161697.414421727, 104141.89596675587, -182502.2169950267, -0.114, 0.992, 0.002, 192.0, 0.0, 0.0, 0.0, 0.0, 0.0, 0.0, 0.0, 0.0, 0.0, 1.6961087763583927E9, 0.0, 2023-09-30 16:19:36.358
37.0, 144168.86349545282, 144128.33978275536, -148372.9807583071, -152695.67402549673, 144247.63104291333, -161723.00716912834, 104044.08473301945, -182518.5337684791, -0.114, 0.992, 0.002, 192.0, 0.0, 0.0, 0.0, 0.0, 0.0, 0.0, 0.0, 0.0, 0.0, 1.696108776358404E9, 0.0, 2023-09-30 16:19:36.358
38.0, 144171.9256844432, 144131.44667523465, -148391.95738934964, -152703.20656337816, 144250.6038249259, -161736.59702975716, 103954.1860168202, -182525.50751274914, -0.114, 0.992, 0.002, 192.0, 0.0, 0.0, 0.0, 0.0, 0.0, 0.0, 0.0, 0.0, 0.0, 1.6961087763584156E9, 0.0, 2023-09-30 16:19:36.358
39.0, 144168.528219286, 144127.75863739953, -148395.08663357337, -152467.82034251932, 144247.2063597687, -161714.17823006847, 104021.21889844167, -182520.85834990244, -0.11800000000000001, 0.982, 0.008, 192.0, 252.0, 80.0, 30.0, 176.0, 0.0, 64.0, 0.0, 0.0, 0.0, 1.6961087763584268E9, 0.0, 2023-09-30 16:19:36.358
40.0, 144161.44271629368, 144120.58372742936, -148383.19550552315, -152446.47442656453, 144240.21026375418, -161699.7613548948, 104112.74929198615, -182522.87000690342, -0.11800000000000001, 0.982, 0.008, 192.0, 0.0, 0.0, 0.0, 0.0, 0.0, 0.0, 0.0, 0.0, 0.0, 1.6961087763584385E9, 0.0, 2023-09-30 16:19:36.358
41.0, 144161.8226959494, 144121.20957627412, -148369.60564489433, -152644.3320684829, 144240.7020021322, -161720.81669817172, 104063.32958499546, -182535.3869837984, -0.11800000000000001, 0.982, 0.008, 192.0, 0.0, 0.0, 0.0, 0.0, 0.0, 0.0, 0.0, 0.0, 0.0, 1.6961087763584497E9, 0.0, 2023-09-30 16:19:36.358
42.0, 144166.69537624068, 144126.14931179874, -148381.54147643346, -152740.28810742951, 144245.44057195671, -161744.28602984978, 103964.98190939211, -182544.4841437917, -0.11800000000000001, 0.982, 0.008, 192.0, 0.0, 0.0, 0.0, 0.0, 0.0, 0.0, 0.0, 0.0, 0.0, 1.6961087763584616E9, 0.0, 2023-09-30 16:19:36.358
43.0, 144163.65553899473, 144122.88595710826, -148390.45982247114, -152502.30908421386, 144242.42308645524, -161723.45420401744, 104031.34423867991, -182538.56093151105, -0.11800000000000001, 0.982, 0.008, 192.0, 0.0, 0.0, 0.0, 0.0, 0.0, 0.0, 0.0, 0.0, 0.0, 1.6961087763584728E9, 0.0, 2023-09-30 16:19:36.358
44.0, 144154.53602725698, 144113.5652796704, -148374.6794908857, -152448.66489752114, 144233.32592646193, -161703.5164479633, 104145.1369697019, -182538.85150418896, -0.11800000000000001, 0.982, 0.008, 192.0, 0.0, 0.0, 0.0, 0.0, 0.0, 0.0, 0.0, 0.0, 0.0, 1.696108776358486E9, 0.0, 2023-09-30 16:19:36.358
45.0, 144153.016108634, 144112.2241750031, -148358.45212441112, -152612.39142565627, 144231.7389526056, -161715.78755566926, 104141.67244931131, -182552.19549562878, -0.11800000000000001, 0.982, 0.008, 192.0, 0.0, 0.0, 0.0, 0.0, 0.0, 0.0, 0.0, 0.0, 0.0, 1.6961087763584976E9, 0.0, 2023-09-30 16:19:36.358
46.0, 144161.44271629368, 144120.94135534065, -148365.8729035703, -152781.57177943847, 144240.18791200971, -161747.54938454027, 104028.88554678984, -182570.4345191043, -0.11800000000000001, 0.982, 0.008, 192.0, 0.0, 0.0, 0.0, 0.0, 0.0, 0.0, 0.0, 0.0, 0.0, 1.6961087763585093E9, 0.0, 2023-09-30 16:19:36.358
47.0, 144157.70997496962, 144116.8733378498, -148380.8709240998, -152561.09417213133, 144236.3881154523, -161727.20929708594, 104061.92142509478, -182565.11480392396, -0.11800000000000001, 0.982, 0.008, 192.0, 0.0, 0.0, 0.0, 0.0, 0.0, 0.0, 0.0, 0.0, 0.0, 1.6961087763585207E9, 0.0, 2023-09-30 16:19:36.358
48.0, 144151.6303004778, 144110.8160151024, -148371.75141236203, -152466.56864482985, 144230.50960666058, -161705.416346242, 104158.63742335289, -182566.344149869, -0.11800000000000001, 0.982, 0.008, 192.0, 0.0, 0.0, 0.0, 0.0, 0.0, 0.0, 0.0, 0.0, 0.0, 1.6961087763585324E9, 0.0, 2023-09-30 16:19:36.358
49.0, 144147.00348937555, 144106.25625923352, -148356.88750229927, -152584.45174508714, 144225.81574032496, -161706.39982299804, 104165.52176064513, -182574.52488833963, -0.122, 0.986, 0.0, 192.0, 252.0, 48.0, 30.0, 208.0, 0.0, 0.0, 0.0, 0.0, 0.0, 1.696108776358544E9, 0.0, 2023-09-30 16:19:36.358
50.0, 144147.94226264267, 144107.48560517855, -148353.3112231864, -152799.52023023608, 144226.5980513809, -161732.28314307728, 104023.6552385873, -182585.2090221893, -0.122, 0.986, 0.0, 192.0, 0.0, 0.0, 0.0, 0.0, 0.0, 0.0, 0.0, 0.0, 0.0, 1.6961087763585556E9, 0.0, 2023-09-30 16:19:36.358
51.0, 144146.33293704188, 144105.69746562213, -148365.2247029811, -152616.19122221367, 144225.033429269, -161718.20154407044, 104008.61251456887, -182581.07394946503, -0.122, 0.986, 0.0, 192.0, 0.0, 0.0, 0.0, 0.0, 0.0, 0.0, 0.0, 0.0, 0.0, 1.6961087763585672E9, 0.0, 2023-09-30 16:19:36.358
52.0, 144141.88493989527, 144100.98124754208, -148357.9156825442, -152479.8455810363, 144220.6971908447, -161695.78274438178, 104088.36353878542, -182582.10212971, -0.122, 0.986, 0.0, 192.0, 0.0, 0.0, 0.0, 0.0, 0.0, 0.0, 0.0, 0.0, 0.0, 1.6961087763585787E9, 0.0, 2023-09-30 16:19:36.358
53.0, 144136.40876250374, 144095.6168288728, -148344.77285680448, -152560.37891630875, 144215.2433651976, -161691.2676920018, 104118.53839380007, -182591.08753098102, -0.122, 0.986, 0.0, 192.0, 0.0, 0.0, 0.0, 0.0, 0.0, 0.0, 0.0, 0.0, 0.0, 1.6961087763585908E9, 0.0, 2023-09-30 16:19:36.358
54.0, 144142.51078874004, 144102.1211865093, -148347.6115283503, -152798.5144017356, 144221.25598445607, -161723.78948018426, 103990.01586318205, -182610.75706610168, -0.122, 0.986, 0.0, 192.0, 0.0, 0.0, 0.0, 0.0, 0.0, 0.0, 0.0, 0.0, 0.0, 1.6961087763586023E9, 0.0, 2023-09-30 16:19:36.358
55.0, 144145.014184119, 144104.44576793263, -148363.01188028, -152672.40585951877, 144223.71467634616, -161720.83904991616, 103958.05286861098, -182612.83577833604, -0.122, 0.986, 0.0, 192.0, 0.0, 0.0, 0.0, 0.0, 0.0, 0.0, 0.0, 0.0, 0.0, 1.6961087763586144E9, 0.0, 2023-09-30 16:19:36.358
56.0, 144139.4709514941, 144098.6566661187, -148361.93899654615, -152486.48404913952, 144218.2832024435, -161695.08984030364, 104045.85052083142, -182609.46066492327, -0.122, 0.986, 0.0, 192.0, 0.0, 0.0, 0.0, 0.0, 0.0, 0.0, 0.0, 0.0, 0.0, 1.696108776358626E9, 0.0, 2023-09-30 16:19:36.358
57.0, 144135.53704446997, 144094.6110003723, -148349.24320569556, -152521.5986396788, 144214.4387023972, -161687.40084021102, 104107.31781808351, -182617.3061272271, -0.122, 0.986, 0.0, 192.0, 0.0, 0.0, 0.0, 0.0, 0.0, 0.0, 0.0, 0.0, 0.0, 1.6961087763586373E9, 0.0, 2023-09-30 16:19:36.358
58.0, 144140.1638555722, 144099.55073589692, -148340.2131009356, -152757.0072122821, 144218.95375477718, -161717.17336382548, 103997.9507324637, -182634.78519139116, -0.122, 0.986, 0.0, 192.0, 0.0, 0.0, 0.0, 0.0, 0.0, 0.0, 0.0, 0.0, 0.0, 1.6961087763586493E9, 0.0, 2023-09-30 16:19:36.358
59.0, 144143.1142858403, 144102.50116616502, -148359.90498780072, -152705.37468259034, 144221.6806676007, -161722.71659645042, 103937.84689162337, -182638.29441527062, -0.11800000000000001, 0.982, -0.002, 192.0, 252.0, 80.0, 30.0, 176.0, 255.0, 240.0, 0.0, 0.0, 0.0, 1.6961087763586612E9, 0.0, 2023-09-30 16:19:36.358
60.0, 144139.56035847194, 144098.768424841, -148359.39089767824, -152488.4957061405, 144218.2384989546, -161698.2637880163, 104016.59208733942, -182635.14281930242, -0.11800000000000001, 0.982, -0.002, 192.0, 0.0, 0.0, 0.0, 0.0, 0.0, 0.0, 0.0, 0.0, 0.0, 1.696108776358673E9, 0.0, 2023-09-30 16:19:36.358
61.0, 144133.52538746898, 144092.6663986047, -148349.019688251, -152496.6540928667, 144212.3823419073, -161685.4562384434, 104096.49957376714, -182642.18361880587, -0.11800000000000001, 0.982, -0.002, 192.0, 0.0, 0.0, 0.0, 0.0, 0.0, 0.0, 0.0, 0.0, 0.0, 1.6961087763586848E9, 0.0, 2023-09-30 16:19:36.358
62.0, 144132.29604152395, 144091.72762533757, -148335.31806889988, -152724.23955491063, 144211.10829247336, -161706.73509916486, 104015.02746522754, -182657.60632248002, -0.11800000000000001, 0.982, -0.002, 192.0, 0.0, 0.0, 0.0, 0.0, 0.0, 0.0, 0.0, 0.0, 0.0, 1.6961087763586967E9, 0.0, 2023-09-30 16:19:36.358
63.0, 144135.02295434749, 144094.63335211677, -148348.95263301762, -152770.35120372192, 144213.76815006355, -161721.59900922765, 103922.87122283832, -182667.44109004035, -0.11800000000000001, 0.982, -0.002, 192.0, 0.0, 0.0, 0.0, 0.0, 0.0, 0.0, 0.0, 0.0, 0.0, 1.6961087763587084E9, 0.0, 2023-09-30 16:19:36.358
64.0, 144132.36309675733, 144091.6605701042, -148355.6134528653, -152543.59275622282, 144211.17534770674, -161698.7108229054, 103986.93132244723, -182666.88229642896, -0.11800000000000001, 0.982, -0.002, 192.0, 0.0, 0.0, 0.0, 0.0, 0.0, 0.0, 0.0, 0.0, 0.0, 1.6961087763587208E9, 0.0, 2023-09-30 16:19:36.358
65.0, 144126.35047749884, 144085.6032473568, -148341.3083364139, -152525.75606414748, 144205.20743193716, -161682.59521515312, 104077.63470144686, -182674.70540698833, -0.11800000000000001, 0.982, -0.002, 192.0, 0.0, 0.0, 0.0, 0.0, 0.0, 0.0, 0.0, 0.0, 0.0, 1.6961087763587325E9, 0.0, 2023-09-30 16:19:36.358
66.0, 144123.6682681642, 144083.12220372228, -148320.47651058156, -152733.62728758185, 144202.41346388025, -161697.0791455602, 104023.27525893155, -182689.3234478621, -0.11800000000000001, 0.982, -0.002, 192.0, 0.0, 0.0, 0.0, 0.0, 0.0, 0.0, 0.0, 0.0, 0.0, 1.6961087763841436E9, 0.0, 2023-09-30 16:19:36.384
67.0, 144127.42336123268, 144087.03375900196, -148333.21700492108, -152873.25863519416, 144205.94503950418, -161719.87792490458, 103894.93154226919, -182702.4215701129, -0.11800000000000001, 0.982, -0.002, 192.0, 0.0, 0.0, 0.0, 0.0, 0.0, 0.0, 0.0, 0.0, 0.0, 1.6961087763841732E9, 0.0, 2023-09-30 16:19:36.384
68.0, 144124.65174492024, 144083.99392175602, -148339.47549336858, -152657.74311515607, 144203.30753365846, -161698.5767124387, 103923.00533330505, -182698.6217735555, -0.11800000000000001, 0.982, -0.002, 192.0, 0.0, 0.0, 0.0, 0.0, 0.0, 0.0, 0.0, 0.0, 0.0, 1.696108776482517E9, 0.0, 2023-09-30 16:19:36.482
69.0, 144117.521538439, 144076.7519565525, -148329.0595804524, -152614.6266001018, 144196.31143764395, -161679.08599127366, 103998.48717433061, -182701.0804654456, -0.114, 0.976, 0.002, 192.0, 252.0, 112.0, 30.0, 128.0, 0.0, 16.0, 0.0, 0.0, 0.0, 1.6961087764825463E9, 0.0, 2023-09-30 16:19:36.482
70.0, 144117.1192070388, 144076.41668038568, -148319.94006871464, -152785.05865157352, 144195.81969926594, -161690.1724565235, 103966.68064197071, -182715.40793364143, -0.114, 0.976, 0.002, 192.0, 0.0, 0.0, 0.0, 0.0, 0.0, 0.0, 0.0, 0.0, 0.0, 1.6961087764825609E9, 0.0, 2023-09-30 16:19:36.482
71.0, 144120.53902394045, 144080.08236647636, -148323.47164433857, -152987.38664238295, 144199.06070221195, -161717.68745394796, 103815.33698026383, -182728.9754425258, -0.114, 0.976, 0.002, 192.0, 0.0, 0.0, 0.0, 0.0, 0.0, 0.0, 0.0, 0.0, 0.0, 1.6961087764825728E9, 0.0, 2023-09-30 16:19:36.482
72.0, 144117.87916635026, 144077.17663969717, -148336.07802821137, -152788.36670975288, 144196.49025159958, -161699.60489268362, 103812.09597731782, -182725.06388724613, -0.114, 0.976, 0.002, 192.0, 0.0, 0.0, 0.0, 0.0, 0.0, 0.0, 0.0, 0.0, 0.0, 1.6961087764825835E9, 0.0, 2023-09-30 16:19:36.482
73.0, 144109.13963426824, 144068.19123842614, -148324.09749318333, -152691.80717370598, 144187.86247823984, -161675.0626772717, 103889.43301313318, -182724.59450061258, -0.114, 0.976, 0.002, 192.0, 0.0, 0.0, 0.0, 0.0, 0.0, 0.0, 0.0, 0.0, 0.0, 1.6961087764825957E9, 0.0, 2023-09-30 16:19:36.482
74.0, 144104.08814002134, 144063.22915115705, -148310.37352208776, -152808.52798325158, 144182.96744620413, -161675.2638429718, 103897.25612369254, -182735.45744841784, -0.114, 0.976, 0.002, 192.0, 0.0, 0.0, 0.0, 0.0, 0.0, 0.0, 0.0, 0.0, 0.0, 1.6961087764826083E9, 0.0, 2023-09-30 16:19:36.482
75.0, 144110.1231110243, 144069.64410181573, -148310.21705987657, -153037.81217787412, 144188.89065848477, -161707.98679685435, 103759.52467435894, -182754.38937597148, -0.114, 0.976, 0.002, 192.0, 0.0, 0.0, 0.0, 0.0, 0.0, 0.0, 0.0, 0.0, 0.0, 1.6961087764826205E9, 0.0, 2023-09-30 16:19:36.482
76.0, 144108.89376507924, 144068.28064540395, -148326.13150192876, -152868.56476885854, 144187.6389607953, -161696.90033160453, 103746.94064223059, -182750.61193115855, -0.114, 0.976, 0.002, 192.0, 0.0, 0.0, 0.0, 0.0, 0.0, 0.0, 0.0, 0.0, 0.0, 1.6961087764826317E9, 0.0, 2023-09-30 16:19:36.482
77.0, 144103.84227083233, 144063.02798545695, -148322.39876060473, -152711.9460954602, 144182.56511480393, -161673.87803481557, 103844.32719282237, -182747.32622472363, -0.114, 0.976, 0.002, 192.0, 0.0, 0.0, 0.0, 0.0, 0.0, 0.0, 0.0, 0.0, 0.0, 1.696108776482643E9, 0.0, 2023-09-30 16:19:36.482
78.0, 144101.4729859201, 144060.65870054468, -148310.75350174351, -152767.37842170935, 144180.17347814722, -161671.7993225812, 103906.06271100792, -182754.70230039387, -0.114, 0.976, 0.002, 192.0, 0.0, 0.0, 0.0, 0.0, 0.0, 0.0, 0.0, 0.0, 0.0, 1.6961087764826539E9, 0.0, 2023-09-30 16:19:36.482
79.0, 144107.08327377835, 144066.67131980316, -148300.98578941653, -152995.83560178705, 144185.85082123886, -161704.67873867496, 103799.66840740066, -182770.4826319793, -0.114, 0.976, 0.002, 192.0, 0.0, 0.0, 0.0, 0.0, 0.0, 0.0, 0.0, 0.0, 0.0, 1.6961087764826646E9, 0.0, 2023-09-30 16:19:36.482
80.0, 144108.53613716795, 144067.96772098157, -148330.9594787311, -152878.6901090968, 144187.16957416173, -161703.38233749656, 103778.79187807941, -182768.85095463408, -0.108, 0.98, 0.002, 192.0, 252.0, 160.0, 30.0, 160.0, 0.0, 16.0, 0.0, 0.0, 0.0, 1.6961087764826753E9, 0.0, 2023-09-30 16:19:36.482
81.0, 144105.78687259994, 144065.01729071347, -148331.47356885357, -152673.6799089527, 144184.57677180492, -161680.7623721078, 103889.88004802229, -182764.96175109886, -0.108, 0.98, 0.002, 192.0, 0.0, 0.0, 0.0, 0.0, 0.0, 0.0, 0.0, 0.0, 0.0, 1.6961087764826865E9, 0.0, 2023-09-30 16:19:36.482
82.0, 144102.43411093164, 144061.66452904517, -148318.19663264713, -152691.3377870724, 144181.40282409225, -161673.2521859708, 103988.20537188118, -182770.30381802368, -0.108, 0.98, 0.002, 192.0, 0.0, 0.0, 0.0, 0.0, 0.0, 0.0, 0.0, 0.0, 0.0, 1.696108776482698E9, 0.0, 2023-09-30 16:19:36.482
83.0, 144104.266953977, 144063.76559302397, -148301.2987138389, -152913.849403125, 144183.12390841532, -161700.05192757273, 103916.50097566855, -182781.1444140845, -0.108, 0.98, 0.002, 192.0, 0.0, 0.0, 0.0, 0.0, 0.0, 0.0, 0.0, 0.0, 0.0, 1.6961087764827092E9, 0.0, 2023-09-30 16:19:36.482
84.0, 144108.4243784457, 144067.87831400376, -148329.59602231934, -152875.9855480177, 144187.12487067282, -161709.5737707107, 103873.22799840308, -182782.21729781834, -0.108, 0.98, 0.002, 192.0, 0.0, 0.0, 0.0, 0.0, 0.0, 0.0, 0.0, 0.0, 0.0, 1.69610877648272E9, 0.0, 2023-09-30 16:19:36.482
85.0, 144105.38454119975, 144064.48084884655, -148334.22283342158, -152638.81118760243, 144184.15208866025, -161685.47859018788, 103974.81667695245, -182774.95298087038, -0.108, 0.98, 0.002, 192.0, 0.0, 0.0, 0.0, 0.0, 0.0, 0.0, 0.0, 0.0, 0.0, 1.6961087764827309E9, 0.0, 2023-09-30 16:19:36.482
86.0, 144101.7188551091, 144060.74810752252, -148325.52800482846, -152616.25827744702, 144180.4864025696, -161673.162778993, 104091.42572777579, -182779.31157103917, -0.108, 0.98, 0.002, 192.0, 0.0, 0.0, 0.0, 0.0, 0.0, 0.0, 0.0, 0.0, 0.0, 1.6961087764827423E9, 0.0, 2023-09-30 16:19:36.482
87.0, 144104.37871269928, 144063.69853779062, -148308.87595520925, -152811.99250364216, 144183.0792049264, -161695.60393042612, 104053.24894824612, -182793.77314970174, -0.108, 0.98, 0.002, 192.0, 0.0, 0.0, 0.0, 0.0, 0.0, 0.0, 0.0, 0.0, 0.0, 1.696108776482754E9, 0.0, 2023-09-30 16:19:36.482
88.0, 144110.83836684685, 144070.31465414938, -148328.009048463, -152856.6289373194, 144189.538859074, -161714.51350623532, 103984.91966544624, -182802.93736492842, -0.108, 0.98, 0.002, 192.0, 0.0, 0.0, 0.0, 0.0, 0.0, 0.0, 0.0, 0.0, 0.0, 1.696108776482768E9, 0.0, 2023-09-30 16:19:36.482
89.0, 144108.98317205705, 144068.21359017058, -148336.39095263375, -152605.7082540641, 144187.92953347322, -161691.5582646797, 104073.72314616719, -182797.32707707013, -0.108, 0.98, 0.002, 192.0, 0.0, 0.0, 0.0, 0.0, 0.0, 0.0, 0.0, 0.0, 0.0, 1.6961087764827788E9, 0.0, 2023-09-30 16:19:36.482
90.0, 144104.1104917658, 144063.16209592368, -148325.259783895, -152557.4061342962, 144183.0792049264, -161674.88386331606, 104194.02023482564, -182800.2551555938, -0.114, 0.982, 0.006, 192.0, 252.0, 112.0, 30.0, 176.0, 0.0, 48.0, 0.0, 0.0, 0.0, 1.6961087764827905E9, 0.0, 2023-09-30 16:19:36.482
91.0, 144102.4564626761, 144061.77628776745, -148307.02076041946, -152726.18415667824, 144181.3804723478, -161687.5125989333, 104175.37887994992, -182810.60401327658, -0.114, 0.982, 0.006, 192.0, 0.0, 0.0, 0.0, 0.0, 0.0, 0.0, 0.0, 0.0, 0.0, 1.696108776482802E9, 0.0, 2023-09-30 16:19:36.482
92.0, 144109.09493077933, 144068.66062505968, -148318.39779834723, -152852.27034715062, 144187.8401264954, -161712.9712358679, 104068.15756179781, -182822.53984481574, -0.114, 0.982, 0.006, 192.0, 0.0, 0.0, 0.0, 0.0, 0.0, 0.0, 0.0, 0.0, 0.0, 1.696108776482813E9, 0.0, 2023-09-30 16:19:36.482
93.0, 144111.53127092496, 144070.78404078295, -148338.13438870126, -152607.4740418761, 144190.27646664102, -161695.6709856595, 104115.00681817613, -182820.77405700376, -0.114, 0.982, 0.006, 192.0, 0.0, 0.0, 0.0, 0.0, 0.0, 0.0, 0.0, 0.0, 0.0, 1.6961087764828253E9, 0.0, 2023-09-30 16:19:36.482
94.0, 144105.69746562213, 144064.77142152446, -148326.15385367323, -152518.51409894397, 144184.57677180492, -161674.5038836603, 104218.42833977084, -182822.27162388226, -0.114, 0.982, 0.006, 192.0, 0.0, 0.0, 0.0, 0.0, 0.0, 0.0, 0.0, 0.0, 0.0, 1.69610877656876E9, 0.0, 2023-09-30 16:19:36.568
95.0, 144103.0152562875, 144062.15626742318, -148311.22288837706, -152642.70039113765, 144181.91691421473, -161679.4659709294, 104215.54496473611, -182832.68753679845, -0.114, 0.982, 0.006, 192.0, 0.0, 0.0, 0.0, 0.0, 0.0, 0.0, 0.0, 0.0, 0.0, 1.696108776568848E9, 0.0, 2023-09-30 16:19:36.568
96.0, 144107.03857028944, 144066.38074712525, -148310.77585348795, -152826.2752683491, 144185.7390625166, -161707.00332009833, 104075.55598921252, -182845.58449334916, -0.114, 0.982, 0.006, 192.0, 0.0, 0.0, 0.0, 0.0, 0.0, 0.0, 0.0, 0.0, 0.0, 1.696108776568864E9, 0.0, 2023-09-30 16:19:36.568
97.0, 144106.68094237815, 144065.86665700277, -148329.68542929715, -152613.03962624547, 144185.49319332757, -161691.89354084653, 104076.20418980172, -182841.58353109166, -0.114, 0.982, 0.006, 192.0, 0.0, 0.0, 0.0, 0.0, 0.0, 0.0, 0.0, 0.0, 0.0, 1.6961087765688772E9, 0.0, 2023-09-30 16:19:36.568
98.0, 144100.9141923087, 144059.87638948875, -148316.58730704634, -152491.71435734205, 144179.6817397692, -161670.1005900026, 104156.73752507419, -182840.22007467988, -0.114, 0.982, 0.006, 192.0, 0.0, 0.0, 0.0, 0.0, 0.0, 0.0, 0.0, 0.0, 0.0, 1.6961087765688896E9, 0.0, 2023-09-30 16:19:36.568
99.0, 144098.522555652, 144057.50710457648, -148305.72435924105, -152592.49837309105, 144177.2901031125, -161672.8051510817, 104164.582987378, -182848.82549629518, -0.114, 0.982, 0.006, 192.0, 0.0, 0.0, 0.0, 0.0, 0.0, 0.0, 0.0, 0.0, 0.0, 1.6961087765689027E9, 0.0, 2023-09-30 16:19:36.568
100.0, 144103.43993943214, 144062.64800580122, -148303.93621968463, -152829.76214048412, 144182.1851351482, -161706.69039567595, 104010.55711633648, -182862.39300517953, -0.114, 0.992, 0.008, 192.0, 252.0, 112.0, 31.0, 0.0, 0.0, 64.0, 0.0, 0.0, 0.0, 1.6961087765689175E9, 0.0, 2023-09-30 16:19:36.568
101.0, 144104.6692853772, 144063.78794476844, -148320.85649023732, -152682.57590324592, 144183.41448109323, -161702.10828806262, 103971.0392321395, -182858.95083653342, -0.114, 0.992, 0.008, 192.0, 0.0, 0.0, 0.0, 0.0, 0.0, 0.0, 0.0, 0.0, 0.0, 1.6961087765689306E9, 0.0, 2023-09-30 16:19:36.568
102.0, 144099.2154597301, 144058.15530516568, -148315.93910645714, -152523.47618621305, 144178.0277106795, -161679.7565436073, 104049.29268947753, -182854.94987427592, -0.114, 0.992, 0.008, 192.0, 0.0, 0.0, 0.0, 0.0, 0.0, 0.0, 0.0, 0.0, 0.0, 1.6961087765689435E9, 0.0, 2023-09-30 16:19:36.568
103.0, 144091.92879103767, 144050.82393298435, -148300.27053359395, -152580.49548631854, 144170.71869024262, -161672.78279933726, 104093.83971617695, -182858.95083653342, -0.114, 0.992, 0.008, 192.0, 0.0, 0.0, 0.0, 0.0, 0.0, 0.0, 0.0, 0.0, 0.0, 1.6961087765689569E9, 0.0, 2023-09-30 16:19:36.568
104.0, 144094.70040735012, 144053.93082546364, -148290.27930382243, -152820.1285386239, 144173.3785478328, -161703.6729101745, 103965.42894428122, -182873.54652566274, -0.114, 0.992, 0.008, 192.0, 0.0, 0.0, 0.0, 0.0, 0.0, 0.0, 0.0, 0.0, 0.0, 1.6961087765689692E9, 0.0, 2023-09-30 16:19:36.568
105.0, 144096.08621550634, 144055.33898536433, -148309.79237673193, -152730.9450782472, 144174.7420042446, -161705.3716427531, 103903.55931562893, -182874.75351986333, -0.114, 0.992, 0.008, 192.0, 0.0, 0.0, 0.0, 0.0, 0.0, 0.0, 0.0, 0.0, 0.0, 1.696108776568982E9, 0.0, 2023-09-30 16:19:36.568
106.0, 144090.54298288142, 144049.57223529485, -148306.752539486, -152521.86686061227, 144169.3328820864, -161679.9130058185, 103976.06837464195, -182871.17724075046, -0.114, 0.992, 0.008, 192.0, 0.0, 0.0, 0.0, 0.0, 0.0, 0.0, 0.0, 0.0, 0.0, 1.6961087765689948E9, 0.0, 2023-09-30 16:19:36.568
107.0, 144085.26797118998, 144044.2078166256, -148296.3142748254, -152534.07091308487, 144164.19198086168, -161669.63120336906, 104041.58133764045, -182879.31327573222, -0.114, 0.992, 0.008, 192.0, 0.0, 0.0, 0.0, 0.0, 0.0, 0.0, 0.0, 0.0, 0.0, 1.6961087765690079E9, 0.0, 2023-09-30 16:19:36.569
108.0, 144089.7606718255, 144048.99108993902, -148284.4454985196, -152756.53782564853, 144168.61762626382, -161698.4202502275, 103939.36681024633, -182898.53577596377, -0.114, 0.992, 0.008, 192.0, 0.0, 0.0, 0.0, 0.0, 0.0, 0.0, 0.0, 0.0, 0.0, 1.6961087765690205E9, 0.0, 2023-09-30 16:19:36.569
109.0, 144092.68875034913, 144051.96387195156, -148302.5504115284, -152748.4464941557, 144171.3892425763, -161710.0208055998, 103855.74893423903, -182904.34722952216, -0.114, 0.992, 0.008, 192.0, 0.0, 0.0, 0.0, 0.0, 0.0, 0.0, 0.0, 0.0, 0.0, 1.6961087767890494E9, 0.0, 2023-09-30 16:19:36.789
110.0, 144088.5983811138, 144047.56057829387, -148309.255934865, -152515.27309599795, 144167.3882803188, -161686.2609012438, 103931.94603108717, -182899.98863935337, -0.11, 0.984, 0.004, 192.0, 252.0, 144.0, 30.0, 192.0, 0.0, 32.0, 0.0, 0.0, 0.0, 1.6961087767890775E9, 0.0, 2023-09-30 16:19:36.789
111.0, 144083.0998519778, 144041.9949939245, -148296.33662656983, -152497.16818298915, 144161.9791581606, -161673.0510202707, 104035.52401489306, -182905.80009291176, -0.11, 0.984, 0.004, 192.0, 0.0, 0.0, 0.0, 0.0, 0.0, 0.0, 0.0, 0.0, 0.0, 1.696108776789091E9, 0.0, 2023-09-30 16:19:36.789
112.0, 144079.92590426517, 144039.08926714532, -148278.81285891688, -152694.6458452518, 144158.7828587035, -161689.74777337883, 103994.75443300659, -182916.46187501692, -0.11, 0.984, 0.004, 192.0, 0.0, 0.0, 0.0, 0.0, 0.0, 0.0, 0.0, 0.0, 0.0, 1.6961087767891028E9, 0.0, 2023-09-30 16:19:36.789
113.0, 144084.28449443396, 144043.6490230142, -148293.9449899131, -152766.3725932089, 144163.05204189447, -161709.3726050106, 103916.32216171292, -182925.08964837668, -0.11, 0.984, 0.004, 192.0, 0.0, 0.0, 0.0, 0.0, 0.0, 0.0, 0.0, 0.0, 0.0, 1.696108776789115E9, 0.0, 2023-09-30 16:19:36.789
114.0, 144085.42443340117, 144044.4983893035, -148307.1101673973, -152513.68612214163, 144164.21433260612, -161689.8148286122, 104005.12564243385, -182923.59208149818, -0.11, 0.984, 0.004, 192.0, 0.0, 0.0, 0.0, 0.0, 0.0, 0.0, 0.0, 0.0, 0.0, 1.6961087767891264E9, 0.0, 2023-09-30 16:19:36.789
115.0, 144080.41764264318, 144039.29043284542, -148295.28609458043, -152449.31309811035, 144159.25224533706, -161671.44169466995, 104135.97275447521, -182927.7718577113, -0.11, 0.984, 0.004, 192.0, 0.0, 0.0, 0.0, 0.0, 0.0, 0.0, 0.0, 0.0, 0.0, 1.6961087767891376E9, 0.0, 2023-09-30 16:19:36.789
116.0, 144076.88606701925, 144035.8929676882, -148277.67291994966, -152600.8132220284, 144155.65361447976, -161679.6000813961, 104138.74437078767, -182937.2266456159, -0.11, 0.984, 0.004, 192.0, 0.0, 0.0, 0.0, 0.0, 0.0, 0.0, 0.0, 0.0, 0.0, 1.6961087767891488E9, 0.0, 2023-09-30 16:19:36.789
117.0, 144079.47886937606, 144038.8433979563, -148283.1938008301, -152742.8585580419, 144158.20171334766, -161701.8177153847, 104038.45209341671, -182945.29562536426, -0.11, 0.984, 0.004, 192.0, 0.0, 0.0, 0.0, 0.0, 0.0, 0.0, 0.0, 0.0, 0.0, 1.6961087767891605E9, 0.0, 2023-09-30 16:19:36.789
118.0, 144078.62950308676, 144037.63640375572, -148299.01883590448, -152505.84065983782, 144157.3746988028, -161681.14235176353, 104091.87276266489, -182938.16541888303, -0.11, 0.984, 0.004, 192.0, 0.0, 0.0, 0.0, 0.0, 0.0, 0.0, 0.0, 0.0, 0.0, 1.6961087767891717E9, 0.0, 2023-09-30 16:19:36.789
119.0, 144072.72864255056, 144031.6461362417, -148290.1004898668, -152409.4152342576, 144151.5632452444, -161657.98594450785, 104212.10279609, -182935.55026478175, -0.11, 0.984, 0.004, 192.0, 0.0, 0.0, 0.0, 0.0, 0.0, 0.0, 0.0, 0.0, 0.0, 1.6961087767891824E9, 0.0, 2023-09-30 16:19:36.789
120.0, 144069.3535291378, 144028.3380780623, -148270.63212044624, -152526.76189264798, 144148.25518706505, -161659.81878755317, 104235.1027411345, -182940.84762821766, -0.11, 0.984, 0.004, 192.0, 0.0, 0.0, 0.0, 0.0, 0.0, 0.0, 0.0, 0.0, 0.0, 1.6961087767891936E9, 0.0, 2023-09-30 16:19:36.789
121.0, 144074.09209896234, 144033.2554618425, -148270.87798963525, -152723.59135432143, 144152.74788770056, -161687.5573024222, 104110.06708265151, -182950.28006437782, -0.11, 0.982, 0.002, 192.0, 252.0, 144.0, 30.0, 176.0, 0.0, 16.0, 0.0, 0.0, 0.0, 1.6961087767892044E9, 0.0, 2023-09-30 16:19:36.789
122.0, 144074.02504372897, 144033.00959265349, -148291.28513232293, -152521.50923270098, 144152.79259118947, -161672.46987491488, 104112.83869896397, -182942.41225032954, -0.11, 0.982, 0.002, 192.0, 0.0, 0.0, 0.0, 0.0, 0.0, 0.0, 0.0, 0.0, 0.0, 1.696108776789215E9, 0.0, 2023-09-30 16:19:36.789
123.0, 144068.07947970385, 144026.9522699061, -148280.46688800657, -152387.6222834137, 144147.13759984227, -161647.43592112494, 104202.13391806293, -182937.00312817135, -0.11, 0.982, 0.002, 192.0, 0.0, 0.0, 0.0, 0.0, 0.0, 0.0, 0.0, 0.0, 0.0, 1.6961087767892263E9, 0.0, 2023-09-30 16:19:36.789
124.0, 144063.6538343017, 144022.5936797373, -148267.88285587824, -152469.31790939785, 144142.71195444014, -161643.41260712297, 104228.73249396474, -182941.92051195152, -0.11, 0.982, 0.002, 192.0, 0.0, 0.0, 0.0, 0.0, 0.0, 0.0, 0.0, 0.0, 0.0, 1.6961087767892373E9, 0.0, 2023-09-30 16:19:36.789
125.0, 144067.02894771445, 144026.3487728058, -148265.35710875478, -152699.07149065394, 144145.90825389724, -161672.17930223697, 104082.93206488277, -182955.24215164687, -0.11, 0.982, 0.002, 192.0, 0.0, 0.0, 0.0, 0.0, 0.0, 0.0, 0.0, 0.0, 0.0, 1.696108776789248E9, 0.0, 2023-09-30 16:19:36.789
126.0, 144067.54303783693, 144026.7958076949, -148279.28224555042, -152557.1155616183, 144146.55645448645, -161665.31731668918, 104036.5074916491, -182953.65517779056, -0.11, 0.982, 0.002, 192.0, 0.0, 0.0, 0.0, 0.0, 0.0, 0.0, 0.0, 0.0, 0.0, 1.6961087767892587E9, 0.0, 2023-09-30 16:19:36.789
127.0, 144062.24567440103, 144021.20787158108, -148275.48244899302, -152382.14610602215, 144141.30379453945, -161640.03749371023, 104108.2789430951, -182950.99532020037, -0.11, 0.982, 0.002, 192.0, 0.0, 0.0, 0.0, 0.0, 0.0, 0.0, 0.0, 0.0, 0.0, 1.6961087767892697E9, 0.0, 2023-09-30 16:19:36.789
128.0, 144056.83655224284, 144015.75404593398, -148262.5407889534, -152430.67174323462, 144135.82761714788, -161632.0132174508, 104154.03296399511, -182957.8349540037, -0.11, 0.982, 0.002, 192.0, 0.0, 0.0, 0.0, 0.0, 0.0, 0.0, 0.0, 0.0, 0.0, 1.6961087767892802E9, 0.0, 2023-09-30 16:19:36.789
129.0, 144058.8035057549, 144018.12333084625, -148255.58939642782, -152675.0880688534, 144137.74986717105, -161660.31052593119, 104025.93511652174, -182971.51422161036, -0.11, 0.982, 0.002, 192.0, 0.0, 0.0, 0.0, 0.0, 0.0, 0.0, 0.0, 0.0, 0.0, 1.696108776789291E9, 0.0, 2023-09-30 16:19:36.789
130.0, 144060.14461042223, 144019.3973802802, -148267.3464140113, -152622.784986828, 144138.93450962717, -161664.22208121087, 103947.97223186163, -182970.3295791542, -0.11, 0.982, 0.002, 192.0, 0.0, 0.0, 0.0, 0.0, 0.0, 0.0, 0.0, 0.0, 0.0, 1.6961087767893171E9, 0.0, 2023-09-30 16:19:36.789
131.0, 144057.14947666522, 144016.0893221008, -148268.50870472298, -152424.90499316514, 144135.98407935907, -161642.11620594456, 104008.0537209575, -182964.45107036247, -0.108, 0.986, 0.006, 192.0, 252.0, 160.0, 30.0, 208.0, 0.0, 48.0, 0.0, 0.0, 0.0, 1.6961087767893286E9, 0.0, 2023-09-30 16:19:36.789
132.0, 144049.08049691684, 144007.9309353746, -148254.49416094949, -152446.07209516433, 144128.04921007744, -161629.28630462723, 104072.20322754422, -182964.00403547336, -0.108, 0.986, 0.006, 192.0, 0.0, 0.0, 0.0, 0.0, 0.0, 0.0, 0.0, 0.0, 0.0, 1.6961087767893393E9, 0.0, 2023-09-30 16:19:36.789
133.0, 144048.74522075002, 144007.8862318857, -148251.49902719248, -152675.22217932012, 144127.64687867725, -161652.71093281638, 103973.96731066315, -182973.77174780035, -0.108, 0.986, 0.006, 192.0, 0.0, 0.0, 0.0, 0.0, 0.0, 0.0, 0.0, 0.0, 0.0, 1.6961087767893503E9, 0.0, 2023-09-30 16:19:36.789
134.0, 144051.58389229584, 144010.6801999426, -148258.495123207, -152699.02678716503, 144130.32908801187, -161666.2113864674, 103872.55744606942, -182976.8786402796, -0.108, 0.986, 0.006, 192.0, 0.0, 0.0, 0.0, 0.0, 0.0, 0.0, 0.0, 0.0, 0.0, 1.6961087767893608E9, 0.0, 2023-09-30 16:19:36.789
135.0, 144047.51587480496, 144006.47807198504, -148262.8984168647, -152469.85435126477, 144126.37282924328, -161642.63029606704, 103928.16858627423, -182970.39663438758, -0.108, 0.986, 0.006, 192.0, 0.0, 0.0, 0.0, 0.0, 0.0, 0.0, 0.0, 0.0, 0.0, 1.6961087767893715E9, 0.0, 2023-09-30 16:19:36.789
136.0, 144043.6490230142, 144002.54416496088, -148254.89649234968, -152451.36945860024, 144122.59538443034, -161630.62740929454, 104008.85838375788, -182976.8339367907, -0.108, 0.986, 0.006, 192.0, 0.0, 0.0, 0.0, 0.0, 0.0, 0.0, 0.0, 0.0, 0.0, 1.696108776789382E9, 0.0, 2023-09-30 16:19:36.789
137.0, 144044.96777593705, 144004.0864353283, -148240.27845147593, -152648.98123132958, 144123.84708211984, -161651.25806942678, 103946.65347893877, -182991.85430906469, -0.108, 0.986, 0.006, 192.0, 0.0, 0.0, 0.0, 0.0, 0.0, 0.0, 0.0, 0.0, 0.0, 1.6961087767893927E9, 0.0, 2023-09-30 16:19:36.789
138.0, 144051.06980217336, 144010.4790342425, -148250.26968124745, -152757.4095436823, 144129.94910835614, -161676.47083717238, 103823.02598035645, -183002.76196035885, -0.108, 0.986, 0.006, 192.0, 0.0, 0.0, 0.0, 0.0, 0.0, 0.0, 0.0, 0.0, 0.0, 1.6961087767894034E9, 0.0, 2023-09-30 16:19:36.789
139.0, 144049.1475521502, 144008.3332667748, -148262.11610580876, -152530.33817176084, 144128.04921007744, -161657.58361310765, 103856.4641900616, -182996.77169284484, -0.108, 0.986, 0.006, 192.0, 0.0, 0.0, 0.0, 0.0, 0.0, 0.0, 0.0, 0.0, 0.0, 1.6961087767894144E9, 0.0, 2023-09-30 16:19:36.789
140.0, 144045.63832827072, 144004.60052545078, -148255.25412026097, -152484.76296481644, 144124.62939317577, -161644.37373213455, 103937.91394685674, -183000.61619289115, -0.108, 0.986, 0.006, 192.0, 0.0, 0.0, 0.0, 0.0, 0.0, 0.0, 0.0, 0.0, 0.0, 1.696108776789425E9, 0.0, 2023-09-30 16:19:36.789
141.0, 144043.38080208073, 144002.4324062386, -148239.65260263116, -152651.03759181948, 144122.32716349687, -161656.73424681835, 103902.8217080619, -183010.74153312942, -0.106, 0.986, 0.01, 192.0, 252.0, 176.0, 30.0, 208.0, 0.0, 80.0, 0.0, 0.0, 0.0, 1.6961087767894356E9, 0.0, 2023-09-30 16:19:36.789
142.0, 144043.49256080302, 144002.70062717207, -148240.56902415384, -152827.75048348313, 144122.28246000796, -161681.7682006083, 103757.42361038014, -183017.80468437728, -0.106, 0.986, 0.01, 192.0, 0.0, 0.0, 0.0, 0.0, 0.0, 0.0, 0.0, 0.0, 0.0, 1.696108776789446E9, 0.0, 2023-09-30 16:19:36.789
143.0, 144041.77147647995, 144000.75602540447, -148255.18706502763, -152613.35255066783, 144120.53902394045, -161665.67494460047, 103764.41970639465, -183012.17204477455, -0.106, 0.986, 0.01, 192.0, 0.0, 0.0, 0.0, 0.0, 0.0, 0.0, 0.0, 0.0, 0.0, 1.6961087767894568E9, 0.0, 2023-09-30 16:19:36.789
144.0, 144036.34000257732, 143995.16808929064, -148246.4922364345, -152516.05540705388, 144115.12990178226, -161646.0054094798, 103849.06576264689, -183012.95435583047, -0.106, 0.986, 0.01, 192.0, 0.0, 0.0, 0.0, 0.0, 0.0, 0.0, 0.0, 0.0, 0.0, 1.6961087767894673E9, 0.0, 2023-09-30 16:19:36.789
145.0, 144033.18840660912, 143992.12825204473, -148226.42036991363, -152625.06486476242, 144112.023009303, -161649.08995021463, 103855.39130632774, -183022.49855071292, -0.106, 0.986, 0.01, 192.0, 0.0, 0.0, 0.0, 0.0, 0.0, 0.0, 0.0, 0.0, 0.0, 1.696108776789478E9, 0.0, 2023-09-30 16:19:36.789
146.0, 144037.56934852235, 143996.77741489143, -148226.4427216581, -152833.7183992527, 144116.2698407495, -161679.2648052293, 103714.68707498159, -183036.691908442, -0.106, 0.986, 0.01, 192.0, 0.0, 0.0, 0.0, 0.0, 0.0, 0.0, 0.0, 0.0, 0.0, 1.6961087767894888E9, 0.0, 2023-09-30 16:19:36.789
147.0, 144036.58587176632, 143995.65982766866, -148248.07921029083, -152649.16004528524, 144115.264012249, -161666.81488356768, 103700.85134516376, -183032.86976014017, -0.106, 0.986, 0.01, 192.0, 0.0, 0.0, 0.0, 0.0, 0.0, 0.0, 0.0, 0.0, 0.0, 1.6961087767894995E9, 0.0, 2023-09-30 16:19:36.789
148.0, 144032.83077869783, 143991.74827238897, -148244.68174513362, -152505.84065983782, 144111.6206779028, -161645.17839493495, 103785.60916013828, -183033.205036307, -0.106, 0.986, 0.01, 192.0, 0.0, 0.0, 0.0, 0.0, 0.0, 0.0, 0.0, 0.0, 0.0, 1.69610877678951E9, 0.0, 2023-09-30 16:19:36.789
149.0, 144027.3546013063, 143986.27209499743, -148226.1968524691, -152579.60141654033, 144106.27861097798, -161640.46217685487, 103822.3554280228, -183039.77644917686, -0.106, 0.986, 0.01, 192.0, 0.0, 0.0, 0.0, 0.0, 0.0, 0.0, 0.0, 0.0, 0.0, 1.6961087767895205E9, 0.0, 2023-09-30 16:19:36.789
150.0, 144028.62865074023, 143987.85906885375, -148218.239631443, -152814.9652856547, 144107.48560517855, -161667.97717427937, 103692.69295843756, -183051.82403943827, -0.106, 0.986, 0.01, 192.0, 0.0, 0.0, 0.0, 0.0, 0.0, 0.0, 0.0, 0.0, 0.0, 1.6961087767895312E9, 0.0, 2023-09-30 16:19:36.789
151.0, 144030.93088041912, 143990.07189155484, -148239.742009609, -152695.2493423521, 144109.765483113, -161665.160854478, 103652.59392888474, -183051.42170803808, -0.106, 0.986, 0.01, 192.0, 0.0, 0.0, 0.0, 0.0, 0.0, 0.0, 0.0, 0.0, 0.0, 1.6961087767895415E9, 0.0, 2023-09-30 16:19:36.789
152.0, 144028.8521681848, 143987.74731013147, -148238.80323634186, -152507.94172381662, 144107.75382611202, -161642.2056129224, 103738.60344154877, -183049.8570859262, -0.108, 0.994, 0.014, 192.0, 252.0, 160.0, 31.0, 16.0, 0.0, 112.0, 0.0, 0.0, 0.0, 1.6961087767895527E9, 0.0, 2023-09-30 16:19:36.789
153.0, 144027.6451739842, 143986.56266767535, -148235.71869560704, -152540.44116025462, 144106.5691836559, -161635.99182796382, 103809.99491333902, -183058.8648389417, -0.108, 0.994, 0.014, 192.0, 0.0, 0.0, 0.0, 0.0, 0.0, 0.0, 0.0, 0.0, 0.0, 1.6961087767895648E9, 0.0, 2023-09-30 16:19:36.789
154.0, 144027.13108386172, 143986.49561244197, -148226.57683212482, -152774.15100027932, 144106.03274178895, -161659.3046974307, 103711.87075518022, -183069.63837976914, -0.108, 0.994, 0.014, 192.0, 0.0, 0.0, 0.0, 0.0, 0.0, 0.0, 0.0, 0.0, 0.0, 1.6961087767895756E9, 0.0, 2023-09-30 16:19:36.789
155.0, 144030.8414734413, 143990.09424329927, -148237.90916656365, -152737.0918079724, 144109.60902090181, -161665.83140681166, 103651.67750736208, -183072.74527224843, -0.108, 0.994, 0.014, 192.0, 0.0, 0.0, 0.0, 0.0, 0.0, 0.0, 0.0, 0.0, 0.0, 1.6961087767895863E9, 0.0, 2023-09-30 16:19:36.789
156.0, 144025.87938617222, 143984.8862868412, -148238.37855319722, -152522.42565422365, 144104.69163712164, -161639.47870009884, 103741.10683692776, -183066.19621112302, -0.108, 0.994, 0.014, 192.0, 0.0, 0.0, 0.0, 0.0, 0.0, 0.0, 0.0, 0.0, 0.0, 1.696108776789597E9, 0.0, 2023-09-30 16:19:36.789
157.0, 144020.51496750297, 143979.41010944964, -148229.8848903042, -152524.03497982444, 144099.4613289191, -161626.29117087022, 103843.50017827752, -183070.89007745864, -0.108, 0.994, 0.014, 192.0, 0.0, 0.0, 0.0, 0.0, 0.0, 0.0, 0.0, 0.0, 0.0, 1.6961087767896075E9, 0.0, 2023-09-30 16:19:36.789
158.0, 144019.53149074691, 143978.71720537153, -148210.0365412279, -152736.8906422723, 144098.4107969297, -161646.2065751799, 103784.15629674868, -183082.44592934204, -0.108, 0.994, 0.014, 192.0, 0.0, 0.0, 0.0, 0.0, 0.0, 0.0, 0.0, 0.0, 0.0, 1.6961087767896183E9, 0.0, 2023-09-30 16:19:36.789
159.0, 144021.85607217028, 143981.13119377272, -148224.36400942373, -152776.63204391385, 144100.6236196308, -161659.88584278655, 103704.36056904323, -183087.72094103348, -0.108, 0.994, 0.014, 192.0, 0.0, 0.0, 0.0, 0.0, 0.0, 0.0, 0.0, 0.0, 0.0, 1.696108776789629E9, 0.0, 2023-09-30 16:19:36.789
160.0, 144021.02905762542, 143980.08066178332, -148239.02675378643, -152533.6909334291, 144099.8636603193, -161637.5564500757, 103785.18447699363, -183084.92697297657, -0.108, 0.994, 0.014, 192.0, 0.0, 0.0, 0.0, 0.0, 0.0, 0.0, 0.0, 0.0, 0.0, 1.6961087767896397E9, 0.0, 2023-09-30 16:19:36.789
161.0, 144021.65490647018, 143980.57240016133, -148233.30470720585, -152491.13321198622, 144100.6683231197, -161626.6487987815, 103900.31831268291, -183095.47699635947, -0.108, 0.994, 0.014, 192.0, 0.0, 0.0, 0.0, 0.0, 0.0, 0.0, 0.0, 0.0, 0.0, 1.6961087767896502E9, 0.0, 2023-09-30 16:19:36.789
162.0, 144020.3361535473, 143979.49951642746, -148212.65169532917, -152664.26982453704, 144099.32721845238, -161640.909211744, 103874.65851004822, -183107.90456627664, -0.116, 0.984, 0.016, 192.0, 252.0, 96.0, 30.0, 192.0, 0.0, 128.0, 0.0, 0.0, 0.0, 1.6961087767896607E9, 0.0, 2023-09-30 16:19:36.789
163.0, 144023.8900809157, 143983.14285077367, -148222.0394280004, -152779.29190150404, 144102.6576283762, -161662.88097654356, 103768.71124133006, -183117.7169820925, -0.116, 0.984, 0.016, 192.0, 0.0, 0.0, 0.0, 0.0, 0.0, 0.0, 0.0, 0.0, 0.0, 1.6961087767896714E9, 0.0, 2023-09-30 16:19:36.789
164.0, 144019.6879529581, 143978.7842606049, -148232.25417521645, -152540.46351199909, 144098.54490739643, -161639.52340358775, 103821.39430301123, -183110.7655895669, -0.116, 0.984, 0.016, 192.0, 0.0, 0.0, 0.0, 0.0, 0.0, 0.0, 0.0, 0.0, 0.0, 1.696108776789682E9, 0.0, 2023-09-30 16:19:36.789
165.0, 144013.76474067746, 143972.70458611305, -148222.77703556741, -152468.02150821942, 144092.59934337132, -161619.83151672262, 103929.3755804748, -183113.00076401245, -0.116, 0.984, 0.016, 192.0, 0.0, 0.0, 0.0, 0.0, 0.0, 0.0, 0.0, 0.0, 0.0, 1.6961087767896929E9, 0.0, 2023-09-30 16:19:36.789
166.0, 144014.9940866225, 143973.978635547, -148214.3280761633, -152606.5129168645, 144093.73928233853, -161630.8062232502, 103929.5767461749, -183127.14941825264, -0.116, 0.984, 0.016, 192.0, 0.0, 0.0, 0.0, 0.0, 0.0, 0.0, 0.0, 0.0, 0.0, 1.6961087767897036E9, 0.0, 2023-09-30 16:19:36.789
167.0, 144020.5373192474, 143979.92419957212, -148216.36208490873, -152785.61744518488, 144099.260163219, -161659.908194531, 103805.7033784036, -183140.40400271464, -0.116, 0.984, 0.016, 192.0, 0.0, 0.0, 0.0, 0.0, 0.0, 0.0, 0.0, 0.0, 0.0, 1.696108776789714E9, 0.0, 2023-09-30 16:19:36.789
168.0, 144017.45277851258, 143976.70554837055, -148231.96360253854, -152566.68210824515, 144096.2203259731, -161640.93156348844, 103832.57017523887, -183132.6702991331, -0.116, 0.984, 0.016, 192.0, 0.0, 0.0, 0.0, 0.0, 0.0, 0.0, 0.0, 0.0, 0.0, 1.6961087767897286E9, 0.0, 2023-09-30 16:19:36.789
169.0, 144013.2953540439, 143972.25755122394, -148227.82852981432, -152442.02642941792, 144092.04054975993, -161619.07155741114, 103945.40178124927, -183132.469133433, -0.116, 0.984, 0.016, 192.0, 0.0, 0.0, 0.0, 0.0, 0.0, 0.0, 0.0, 0.0, 0.0, 1.6961087767897391E9, 0.0, 2023-09-30 16:19:36.789
170.0, 144011.75308367648, 143970.8940948122, -148214.7304075635, -152527.27598277046, 144090.54298288142, -161620.01033067828, 103984.40557532378, -183141.96862482652, -0.116, 0.984, 0.016, 192.0, 0.0, 0.0, 0.0, 0.0, 0.0, 0.0, 0.0, 0.0, 0.0, 1.6961087769864163E9, 0.0, 2023-09-30 16:19:36.986
171.0, 144014.3458860333, 143973.77746984691, -148209.05306447187, -152730.6992090582, 144093.0687300049, -161646.67596181345, 103865.69546052165, -183153.25625577645, -0.116, 0.984, 0.016, 192.0, 0.0, 0.0, 0.0, 0.0, 0.0, 0.0, 0.0, 0.0, 0.0, 1.696108776986509E9, 0.0, 2023-09-30 16:19:36.986
172.0, 144017.0504471124, 143976.32556871482, -148236.07632351833, -152542.47516900007, 144095.88504980627, -161637.08706344213, 103867.19302740015, -183151.1328400532, -0.116, 0.984, 0.014, 192.0, 252.0, 96.0, 30.0, 192.0, 0.0, 112.0, 0.0, 0.0, 0.0, 1.696108776986542E9, 0.0, 2023-09-30 16:19:36.986
173.0, 144014.36823777776, 143973.5316006579, -148232.03065777192, -152362.5212743904, 144093.3145991939, -161612.85777245258, 103975.59898800838, -183148.6294446742, -0.116, 0.984, 0.014, 192.0, 0.0, 0.0, 0.0, 0.0, 0.0, 0.0, 0.0, 0.0, 0.0, 1.6961087769865663E9, 0.0, 2023-09-30 16:19:36.986
174.0, 144010.30022028688, 143969.41887967812, -148213.85868952976, -152398.976969597, 144089.3136369364, -161604.7440892153, 104042.76598009658, -183152.67511042062, -0.116, 0.984, 0.014, 192.0, 0.0, 0.0, 0.0, 0.0, 0.0, 0.0, 0.0, 0.0, 0.0, 1.6961087769865854E9, 0.0, 2023-09-30 16:19:36.986
175.0, 144018.07862735732, 143977.4878594265, -148206.50496560396, -152610.9162105222, 144096.9579335401, -161635.54479307472, 103932.46012120965, -183168.2319245615, -0.116, 0.984, 0.014, 192.0, 0.0, 0.0, 0.0, 0.0, 0.0, 0.0, 0.0, 0.0, 0.0, 1.696108776986605E9, 0.0, 2023-09-30 16:19:36.986
176.0, 144021.9454791481, 143981.31000772835, -148233.5952798838, -152491.62495036423, 144100.6683231197, -161634.27074364075, 103895.44563239165, -183166.48848849398, -0.116, 0.984, 0.014, 192.0, 0.0, 0.0, 0.0, 0.0, 0.0, 0.0, 0.0, 0.0, 0.0, 1.6961087769866242E9, 0.0, 2023-09-30 16:19:36.986
177.0, 144017.07279885685, 143976.16910650363, -148230.71190484904, -152282.72554668493, 144095.88504980627, -161607.18042936092, 103989.32295910394, -183158.62067444573, -0.116, 0.984, 0.014, 192.0, 0.0, 0.0, 0.0, 0.0, 0.0, 0.0, 0.0, 0.0, 0.0, 1.6961087769866512E9, 0.0, 2023-09-30 16:19:36.986
178.0, 144011.5295662319, 143970.62587387871, -148217.85965178724, -152301.90334342758, 144090.43122415917, -161595.82574317764, 104067.28584376405, -183161.61580820274, -0.116, 0.984, 0.014, 192.0, 0.0, 0.0, 0.0, 0.0, 0.0, 0.0, 0.0, 0.0, 0.0, 1.6961087769866736E9, 0.0, 2023-09-30 16:19:36.986
179.0, 144015.2846593004, 143974.6938913696, -148202.34754113527, -152526.38191299225, 144094.18631722764, -161623.27368536874, 103973.2967583295, -183175.94327639858, -0.116, 0.984, 0.014, 192.0, 0.0, 0.0, 0.0, 0.0, 0.0, 0.0, 0.0, 0.0, 0.0, 1.6961087769867017E9, 0.0, 2023-09-30 16:19:36.986
180.0, 144018.65977271317, 143978.15841176015, -148225.72746583552, -152502.86787782525, 144097.49437540703, -161632.2590866398, 103898.3737109153, -183179.0278171334, -0.116, 0.984, 0.014, 192.0, 0.0, 0.0, 0.0, 0.0, 0.0, 0.0, 0.0, 0.0, 0.0, 1.6961087769867291E9, 0.0, 2023-09-30 16:19:36.986
181.0, 144017.0504471124, 143976.16910650363, -148229.8848903042, -152277.36112801568, 144095.84034631733, -161609.86263869557, 103971.2403978396, -183174.982151387, -0.116, 0.984, 0.014, 192.0, 0.0, 0.0, 0.0, 0.0, 0.0, 0.0, 0.0, 0.0, 0.0, 1.6961087769867647E9, 0.0, 2023-09-30 16:19:36.986
182.0, 144011.75308367648, 143970.80468783434, -148217.0326372424, -152270.8344186347, 144090.67709334817, -161596.67510946695, 104056.1099715364, -183178.96076190006, -0.11, 0.986, 0.016, 192.0, 252.0, 144.0, 30.0, 208.0, 0.0, 128.0, 0.0, 0.0, 0.0, 1.6961087769868028E9, 0.0, 2023-09-30 16:19:36.986
183.0, 144011.55191797638, 143970.84939132325, -148201.60993356825, -152479.4432496361, 144090.3641689258, -161616.7916794767, 103981.85747645587, -183190.740131228, -0.11, 0.986, 0.016, 192.0, 0.0, 0.0, 0.0, 0.0, 0.0, 0.0, 0.0, 0.0, 0.0, 1.6961087769869044E9, 0.0, 2023-09-30 16:19:36.986
184.0, 144014.4799965, 143973.86687682473, -148213.8810412742, -152547.43725626913, 144093.2028404716, -161634.11428142956, 103871.68572803566, -183195.85868070828, -0.11, 0.986, 0.016, 192.0, 0.0, 0.0, 0.0, 0.0, 0.0, 0.0, 0.0, 0.0, 0.0, 1.6961087769869516E9, 0.0, 2023-09-30 16:19:36.986
185.0, 144012.40128426568, 143971.72110935702, -148224.25225070148, -152315.73907324544, 144091.32529393738, -161612.81306896367, 103922.75946411604, -183188.8402329493, -0.11, 0.986, 0.016, 192.0, 0.0, 0.0, 0.0, 0.0, 0.0, 0.0, 0.0, 0.0, 0.0, 1.6961087769869647E9, 0.0, 2023-09-30 16:19:36.986
186.0, 144006.16514756266, 143965.3285104428, -148212.7858057959, -152282.07734609573, 144085.17856421217, -161596.65275772248, 104017.44145362872, -183188.05792189337, -0.11, 0.986, 0.016, 192.0, 0.0, 0.0, 0.0, 0.0, 0.0, 0.0, 0.0, 0.0, 0.0, 1.6961087769869797E9, 0.0, 2023-09-30 16:19:36.986
187.0, 144005.60635395127, 143964.97088253152, -148201.4311196126, -152462.8806069947, 144084.5974188563, -161612.32133058566, 103988.47359281464, -183197.0433231644, -0.11, 0.986, 0.016, 192.0, 0.0, 0.0, 0.0, 0.0, 0.0, 0.0, 0.0, 0.0, 0.0, 1.696108776986994E9, 0.0, 2023-09-30 16:19:36.986
188.0, 144008.55678421937, 143968.10012675525, -148205.0297504699, -152612.8161088009, 144087.4137386577, -161637.5564500757, 103869.15998091221, -183204.01706743444, -0.11, 0.986, 0.016, 192.0, 0.0, 0.0, 0.0, 0.0, 0.0, 0.0, 0.0, 0.0, 0.0, 1.696108776987024E9, 0.0, 2023-09-30 16:19:36.987
189.0, 144006.05338884037, 143965.30615869834, -148215.91505001963, -152390.19273402606, 144084.84328804532, -161618.8033364777, 103908.78962383147, -183196.4398260641, -0.11, 0.986, 0.016, 192.0, 0.0, 0.0, 0.0, 0.0, 0.0, 0.0, 0.0, 0.0, 0.0, 1.696108776987039E9, 0.0, 2023-09-30 16:19:36.987
190.0, 144001.9406678606, 143961.0816789963, -148209.74596854998, -152315.4485005675, 144080.81997404338, -161602.12893511404, 104013.12756694885, -183197.78093073142, -0.11, 0.986, 0.016, 192.0, 0.0, 0.0, 0.0, 0.0, 0.0, 0.0, 0.0, 0.0, 0.0, 1.696108776987075E9, 0.0, 2023-09-30 16:19:36.987
191.0, 143998.65496142567, 143957.90773128363, -148194.77029976493, -152451.12358941123, 144077.5566193529, -161608.72269972836, 104018.49198561812, -183205.76050350195, -0.11, 0.986, 0.016, 192.0, 0.0, 0.0, 0.0, 0.0, 0.0, 0.0, 0.0, 0.0, 0.0, 1.696108776987086E9, 0.0, 2023-09-30 16:19:36.987
192.0, 143999.57138294834, 143959.0700219953, -148195.06087244285, -152648.04245806247, 144078.3612821533, -161635.2542203968, 103888.8742195218, -183214.0530006949, -0.11, 0.986, 0.016, 192.0, 0.0, 0.0, 0.0, 0.0, 0.0, 0.0, 0.0, 0.0, 0.0, 1.6961087769870973E9, 0.0, 2023-09-30 16:19:36.987
193.0, 144000.80072889337, 143960.0758504958, -148212.15995695116, -152440.9311939396, 144079.5459246094, -161623.0948714131, 103902.44172840616, -183210.63318379322, -0.108, 0.982, 0.016, 192.0, 252.0, 160.0, 30.0, 176.0, 0.0, 128.0, 0.0, 0.0, 0.0, 1.6961087769871075E9, 0.0, 2023-09-30 16:19:36.987
194.0, 143997.9397056031, 143957.10306848327, -148206.50496560396, -152310.01702666486, 144076.72960480806, -161603.76061245927, 104008.81368026897, -183212.37661986073, -0.108, 0.982, 0.016, 192.0, 0.0, 0.0, 0.0, 0.0, 0.0, 0.0, 0.0, 0.0, 0.0, 1.6961087769871185E9, 0.0, 2023-09-30 16:19:36.987
195.0, 143995.01162707945, 143954.19734170407, -148189.71880551803, -152393.2102195275, 144073.84622977333, -161604.16294385947, 104051.23729124514, -183222.21138742106, -0.108, 0.982, 0.016, 192.0, 0.0, 0.0, 0.0, 0.0, 0.0, 0.0, 0.0, 0.0, 0.0, 1.6961087769871285E9, 0.0, 2023-09-30 16:19:36.987
196.0, 143996.95622884706, 143956.5219231274, -148179.36994783522, -152614.55954486842, 144075.79083154094, -161633.04139769572, 103928.16858627423, -183235.51067537197, -0.108, 0.982, 0.016, 192.0, 0.0, 0.0, 0.0, 0.0, 0.0, 0.0, 0.0, 0.0, 0.0, 1.6961087769871783E9, 0.0, 2023-09-30 16:19:36.987
197.0, 143999.28081027043, 143958.60063536177, -148204.49330860298, -152461.07011569384, 144078.07070947537, -161627.83344123763, 103909.5272313985, -183236.11417247227, -0.108, 0.982, 0.016, 192.0, 0.0, 0.0, 0.0, 0.0, 0.0, 0.0, 0.0, 0.0, 0.0, 1.6961087769871905E9, 0.0, 2023-09-30 16:19:36.987
198.0, 143995.48101371303, 143954.5326178709, -148200.60410506776, -152290.77217468884, 144074.2038576846, -161605.01231014877, 104004.20922091117, -183235.73419281654, -0.108, 0.982, 0.016, 192.0, 0.0, 0.0, 0.0, 0.0, 0.0, 0.0, 0.0, 0.0, 0.0, 1.696108776987229E9, 0.0, 2023-09-30 16:19:36.987
199.0, 143989.53544968792, 143948.74351605697, -148185.44962232705, -152336.9061752446, 144068.45945935958, -161597.09979261158, 104065.63181467436, -183242.5514748754, -0.108, 0.982, 0.016, 192.0, 0.0, 0.0, 0.0, 0.0, 0.0, 0.0, 0.0, 0.0, 0.0, 1.696108776987257E9, 0.0, 2023-09-30 16:19:36.987
200.0, 143990.51892644394, 143949.99521374647, -148178.09589840125, -152565.87744544476, 144069.30882564888, -161623.0948714131, 103952.88961564179, -183255.82841108186, -0.108, 0.982, 0.016, 192.0, 0.0, 0.0, 0.0, 0.0, 0.0, 0.0, 0.0, 0.0, 0.0, 1.6961087769872675E9, 0.0, 2023-09-30 16:19:36.987
201.0, 143990.78714737738, 143950.1740277021, -148191.26107588544, -152479.0856217248, 144069.48763960454, -161622.0443394237, 103899.46894639361, -183255.4037279372, -0.108, 0.982, 0.016, 192.0, 0.0, 0.0, 0.0, 0.0, 0.0, 0.0, 0.0, 0.0, 0.0, 1.6961087769872785E9, 0.0, 2023-09-30 16:19:36.987
202.0, 143987.41203396465, 143946.731859056, -148191.3728346077, -152270.7450116569, 144066.24663665853, -161597.3456618006, 103977.65534849827, -183252.76622209148, -0.108, 0.982, 0.016, 192.0, 0.0, 0.0, 0.0, 0.0, 0.0, 0.0, 0.0, 0.0, 0.0, 1.6961087769872892E9, 0.0, 2023-09-30 16:19:36.987
203.0, 143984.8862868412, 143944.0720014658, -148183.41561358163, -152286.5029914979, 144063.74324127953, -161588.18144657393, 104049.96324181119, -183262.82450709637, -0.116, 0.986, 0.018000000000000002, 192.0, 252.0, 96.0, 30.0, 208.0, 0.0, 144.0, 0.0, 0.0, 0.0, 1.6961087769873154E9, 0.0, 2023-09-30 16:19:36.987
204.0, 143985.64624615267, 143945.03312647738, -148170.29513958635, -152509.57340116185, 144064.39144186873, -161610.95787417388, 103954.20836856465, -183278.3142660039, -0.116, 0.986, 0.018000000000000002, 192.0, 0.0, 0.0, 0.0, 0.0, 0.0, 0.0, 0.0, 0.0, 0.0, 1.6961087769873257E9, 0.0, 2023-09-30 16:19:36.987
205.0, 143987.8367171093, 143947.2683009229, -148187.34952060576, -152514.02139830845, 144066.47015410307, -161620.3456068451, 103867.34948961134, -183283.54457420643, -0.116, 0.986, 0.018000000000000002, 192.0, 0.0, 0.0, 0.0, 0.0, 0.0, 0.0, 0.0, 0.0, 0.0, 1.6961087769873366E9, 0.0, 2023-09-30 16:19:36.987
206.0, 143984.08162404082, 143943.35674564325, -148192.98216020848, -152283.73137518542, 144062.82681975685, -161594.73050769934, 103937.55631894546, -183278.29191425943, -0.116, 0.986, 0.018000000000000002, 192.0, 0.0, 0.0, 0.0, 0.0, 0.0, 0.0, 0.0, 0.0, 0.0, 1.696108776987347E9, 0.0, 2023-09-30 16:19:36.987
207.0, 143978.91837107163, 143938.1264374407, -148181.58277053628, -152265.31353775426, 144057.7529737655, -161579.33015576962, 104030.31605843498, -183282.7622631505, -0.116, 0.986, 0.018000000000000002, 192.0, 0.0, 0.0, 0.0, 0.0, 0.0, 0.0, 0.0, 0.0, 0.0, 1.6961087769873574E9, 0.0, 2023-09-30 16:19:36.987
208.0, 143980.50534492795, 143939.95928048604, -148167.0317848959, -152463.41704886165, 144059.20583715508, -161598.39619379, 103972.17917110672, -183297.06737960188, -0.116, 0.986, 0.018000000000000002, 192.0, 0.0, 0.0, 0.0, 0.0, 0.0, 0.0, 0.0, 0.0, 0.0, 1.696108776987368E9, 0.0, 2023-09-30 16:19:36.987
209.0, 143982.80757460685, 143942.30621365385, -148177.98413967897, -152551.6617359712, 144061.41865985616, -161615.6964439984, 103861.9180157087, -183304.13053084977, -0.116, 0.986, 0.018000000000000002, 192.0, 0.0, 0.0, 0.0, 0.0, 0.0, 0.0, 0.0, 0.0, 0.0, 1.6961087769873781E9, 0.0, 2023-09-30 16:19:36.987
210.0, 143980.17006876113, 143939.40048687466, -148189.58469505128, -152313.52625054435, 144058.91526447717, -161592.45062976488, 103917.08212102439, -183299.2131470696, -0.116, 0.986, 0.018000000000000002, 192.0, 0.0, 0.0, 0.0, 0.0, 0.0, 0.0, 0.0, 0.0, 0.0, 1.6961087769873888E9, 0.0, 2023-09-30 16:19:36.987
211.0, 143975.87853382571, 143935.08660019477, -148182.20861938104, -152261.9384243415, 144054.71313651957, -161575.35154525656, 104021.01773274157, -183304.35404829434, -0.116, 0.986, 0.018000000000000002, 192.0, 0.0, 0.0, 0.0, 0.0, 0.0, 0.0, 0.0, 0.0, 0.0, 1.696108776987399E9, 0.0, 2023-09-30 16:19:36.987
212.0, 143974.55978090284, 143933.9243094831, -148162.98611914946, -152424.36855129822, 144053.28262487444, -161586.37095527304, 103999.40359585329, -183315.5075687775, -0.116, 0.986, 0.018000000000000002, 192.0, 0.0, 0.0, 0.0, 0.0, 0.0, 0.0, 0.0, 0.0, 0.0, 1.6961087769874098E9, 0.0, 2023-09-30 16:19:36.987
213.0, 143979.41010944964, 143939.04285896337, -148170.49630528645, -152580.65194852973, 144058.06589818787, -161612.36603407457, 103873.20564665862, -183326.05759216042, -0.11, 0.986, 0.014, 192.0, 252.0, 144.0, 30.0, 208.0, 0.0, 112.0, 0.0, 0.0, 0.0, 1.69610877698742E9, 0.0, 2023-09-30 16:19:36.987
214.0, 143976.05734778135, 143935.53363508388, -148183.03563392587, -152351.54656786282, 144054.82489524185, -161591.57891173114, 103905.25804820753, -183318.70386823462, -0.11, 0.986, 0.014, 192.0, 0.0, 0.0, 0.0, 0.0, 0.0, 0.0, 0.0, 0.0, 0.0, 1.6961087769874303E9, 0.0, 2023-09-30 16:19:36.987
215.0, 143968.45775466654, 143927.71052452453, -148173.26792159892, -152257.3786684726, 144047.27000561595, -161568.78013238672, 104013.59695358241, -183319.93321417968, -0.11, 0.986, 0.014, 192.0, 0.0, 0.0, 0.0, 0.0, 0.0, 0.0, 0.0, 0.0, 0.0, 1.6961087769874408E9, 0.0, 2023-09-30 16:19:36.987
216.0, 143967.1390017437, 143926.54823381285, -148158.29225281384, -152376.0664315303, 144045.97360443755, -161574.36806850054, 104037.44626491622, -183336.60761554333, -0.11, 0.986, 0.014, 192.0, 0.0, 0.0, 0.0, 0.0, 0.0, 0.0, 0.0, 0.0, 0.0, 1.6961087769874513E9, 0.0, 2023-09-30 16:19:36.987
217.0, 143971.85521982374, 143931.53267282638, -148156.90644465762, -152582.70830901962, 144050.6004155398, -161604.81114444867, 103915.89747856827, -183357.88647626477, -0.11, 0.986, 0.014, 192.0, 0.0, 0.0, 0.0, 0.0, 0.0, 0.0, 0.0, 0.0, 0.0, 1.6961087769874613E9, 0.0, 2023-09-30 16:19:36.987
218.0, 143970.31294945633, 143929.63277454767, -148176.7771454784, -152394.43956547257, 144049.08049691684, -161591.64596696448, 103926.13457752879, -183360.70279606615, -0.11, 0.986, 0.014, 192.0, 0.0, 0.0, 0.0, 0.0, 0.0, 0.0, 0.0, 0.0, 0.0, 1.696108776987472E9, 0.0, 2023-09-30 16:19:36.987
219.0, 143965.9320075431, 143925.07301867878, -148176.30775884484, -152261.40198247458, 144044.6995550036, -161570.7917893877, 104032.59593636941, -183366.02251124653, -0.11, 0.986, 0.014, 192.0, 0.0, 0.0, 0.0, 0.0, 0.0, 0.0, 0.0, 0.0, 0.0, 1.6961087769874823E9, 0.0, 2023-09-30 16:19:36.987
220.0, 143960.6793475961, 143919.86506222072, -148158.9181016586, -152341.13065494667, 144039.37983982323, -161567.86371086404, 104083.73672768316, -183374.35971192835, -0.11, 0.986, 0.014, 192.0, 0.0, 0.0, 0.0, 0.0, 0.0, 0.0, 0.0, 0.0, 0.0, 1.6961087769874928E9, 0.0, 2023-09-30 16:19:36.987
221.0, 143965.21675172052, 143924.84950123425, -148149.9774038765, -152570.37014608027, 144044.02900266994, -161599.60318799058, 103964.40076403628, -183387.74840685708, -0.11, 0.986, 0.014, 192.0, 0.0, 0.0, 0.0, 0.0, 0.0, 0.0, 0.0, 0.0, 0.0, 1.696108776987503E9, 0.0, 2023-09-30 16:19:36.987
222.0, 143966.31198719883, 143925.81062624583, -148176.48657280047, -152427.65425773314, 144044.99012768152, -161594.30582455467, 103939.54562420197, -183382.71926435464, -0.11, 0.986, 0.014, 192.0, 0.0, 0.0, 0.0, 0.0, 0.0, 0.0, 0.0, 0.0, 0.0, 1.6961087769875133E9, 0.0, 2023-09-30 16:19:36.987
223.0, 143964.45679240904, 143923.66485877812, -148177.20182862305, -152237.84324381867, 144043.246691614, -161571.4846934658, 104036.61925037137, -183379.90294455327, -0.108, 0.982, 0.014, 192.0, 252.0, 160.0, 30.0, 176.0, 0.0, 112.0, 0.0, 0.0, 0.0, 1.6961087770365639E9, 0.0, 2023-09-30 16:19:37.036
224.0, 143962.1322109857, 143921.40733258813, -148164.6848517281, -152266.25231102138, 144040.98916542402, -161564.10861779554, 104111.29642859656, -183387.45783417916, -0.108, 0.982, 0.014, 192.0, 0.0, 0.0, 0.0, 0.0, 0.0, 0.0, 0.0, 0.0, 0.0, 1.696108777036606E9, 0.0, 2023-09-30 16:19:37.036
225.0, 143964.85912380923, 143924.51422506743, -148152.7266684445, -152483.7347845715, 144043.6490230142, -161589.61195821906, 104011.22766867015, -183400.01951456303, -0.108, 0.982, 0.014, 192.0, 0.0, 0.0, 0.0, 0.0, 0.0, 0.0, 0.0, 0.0, 0.0, 1.6961087770366228E9, 0.0, 2023-09-30 16:19:37.036
226.0, 143966.51315289893, 143926.10119892374, -148173.64790125465, -152406.08482433378, 144045.1465898927, -161590.61778671955, 103954.6330517093, -183397.20319476168, -0.108, 0.982, 0.014, 192.0, 0.0, 0.0, 0.0, 0.0, 0.0, 0.0, 0.0, 0.0, 0.0, 1.696108777036636E9, 0.0, 2023-09-30 16:19:37.036
227.0, 143965.90965579863, 143925.22948088998, -148176.88890420066, -152171.61502499762, 144044.63249977023, -161566.8355306191, 104036.73100909365, -183390.56472665846, -0.108, 0.982, 0.014, 192.0, 0.0, 0.0, 0.0, 0.0, 0.0, 0.0, 0.0, 0.0, 0.0, 1.6961087770366497E9, 0.0, 2023-09-30 16:19:37.036
228.0, 143961.79693481888, 143921.02735293237, -148164.88601742816, -152156.415838768, 144040.67624100164, -161553.31272522363, 104121.15354790134, -183390.45296793617, -0.108, 0.982, 0.014, 192.0, 0.0, 0.0, 0.0, 0.0, 0.0, 0.0, 0.0, 0.0, 0.0, 1.6961087770366628E9, 0.0, 2023-09-30 16:19:37.036
229.0, 143963.2721499529, 143922.74843725545, -148140.6567264386, -152353.960556264, 144042.08440090233, -161573.76457140024, 104036.5074916491, -183397.3820087173, -0.108, 0.982, 0.014, 192.0, 0.0, 0.0, 0.0, 0.0, 0.0, 0.0, 0.0, 0.0, 0.0, 1.6961087770366776E9, 0.0, 2023-09-30 16:19:37.036
230.0, 143966.0437662654, 143925.63181229017, -148161.3320900598, -152361.1131144897, 144044.72190674805, -161583.48758023832, 103939.99265909108, -183395.9291453277, -0.108, 0.982, 0.014, 192.0, 0.0, 0.0, 0.0, 0.0, 0.0, 0.0, 0.0, 0.0, 0.0, 1.69610877703669E9, 0.0, 2023-09-30 16:19:37.036
231.0, 143959.740574329, 143919.12745465367, -148168.41759305212, -152107.37611143306, 144038.57517702284, -161552.888042079, 103999.06831968646, -183382.1381189988, -0.108, 0.982, 0.014, 192.0, 0.0, 0.0, 0.0, 0.0, 0.0, 0.0, 0.0, 0.0, 0.0, 1.6961087770956223E9, 0.0, 2023-09-30 16:19:37.095
232.0, 143954.0855829818, 143913.36070458422, -148158.0240318804, -152062.35969810007, 144033.0542961424, -161533.91141103645, 104092.61037023192, -183381.51227015405, -0.108, 0.982, 0.014, 192.0, 0.0, 0.0, 0.0, 0.0, 0.0, 0.0, 0.0, 0.0, 0.0, 1.6961087770957286E9, 0.0, 2023-09-30 16:19:37.095
233.0, 143954.75613531543, 143914.23242261796, -148139.42738049358, -152233.77522632782, 144033.63544149822, -161548.59650714358, 104047.10221852091, -183391.95053481468, -0.108, 0.982, 0.014, 192.0, 0.0, 0.0, 0.0, 0.0, 0.0, 0.0, 0.0, 0.0, 0.0, 1.6961087770957568E9, 0.0, 2023-09-30 16:19:37.095
234.0, 143961.50636214094, 143921.09440816575, -148152.90548240012, -152325.17150940557, 144040.251557857, -161569.96477484284, 103934.47177821062, -183401.3382674859, -0.108, 0.988, 0.012, 192.0, 252.0, 160.0, 30.0, 224.0, 0.0, 96.0, 0.0, 0.0, 0.0, 1.6961087770957775E9, 0.0, 2023-09-30 16:19:37.095
235.0, 143958.51122838393, 143917.9204604531, -148168.66346224112, -152071.36745111554, 144037.3011275889, -161545.24374547528, 103987.08778465842, -183392.62108714832, -0.108, 0.988, 0.012, 192.0, 0.0, 0.0, 0.0, 0.0, 0.0, 0.0, 0.0, 0.0, 0.0, 1.6961087770957947E9, 0.0, 2023-09-30 16:19:37.095
236.0, 143953.5714928593, 143912.80191097283, -148159.20867433652, -151995.3715199675, 144032.51785427544, -161525.59656209906, 104097.50540226763, -183393.9845435601, -0.108, 0.988, 0.012, 192.0, 0.0, 0.0, 0.0, 0.0, 0.0, 0.0, 0.0, 0.0, 0.0, 1.696108777095818E9, 0.0, 2023-09-30 16:19:37.095
237.0, 143951.09044922478, 143910.43262606056, -148141.14846481662, -152135.82988212467, 144030.03681064092, -161532.95028602486, 104092.90094290984, -183402.25468900858, -0.108, 0.988, 0.012, 192.0, 0.0, 0.0, 0.0, 0.0, 0.0, 0.0, 0.0, 0.0, 0.0, 1.6961087770958383E9, 0.0, 2023-09-30 16:19:37.095
238.0, 143953.95147251507, 143913.56187028432, -148143.0707148398, -152299.69052072652, 144032.6966682311, -161557.5372049257, 103967.10532511536, -183409.47430246763, -0.108, 0.988, 0.012, 192.0, 0.0, 0.0, 0.0, 0.0, 0.0, 0.0, 0.0, 0.0, 0.0, 1.6961087770958555E9, 0.0, 2023-09-30 16:19:37.095
240.0, 143953.41503064812, 143912.6678005061, -148161.04151738185, -151959.20639743883, 144032.22728159753, -161523.69666382036, 104102.26632383661, -183403.2828692535, -0.108, 0.988, 0.012, 192.0, 0.0, 0.0, 0.0, 0.0, 0.0, 0.0, 0.0, 0.0, 0.0, 1.6961087770958793E9, 0.0, 2023-09-30 16:19:37.095
241.0, 143952.74447831447, 143912.0195999169, -148148.971575376, -152058.85047422058, 144031.46732228604, -161528.2787714337, 104131.16712941733, -183413.07293332493, -0.108, 0.988, 0.012, 192.0, 0.0, 0.0, 0.0, 0.0, 0.0, 0.0, 0.0, 0.0, 0.0, 1.6961087770959044E9, 0.0, 2023-09-30 16:19:37.095
242.0, 143958.04184175038, 143917.56283254182, -148143.00365960642, -152274.5001047254, 144036.6082235108, -161560.26411774923, 104003.2033924107, -183428.71915444365, -0.108, 0.988, 0.012, 192.0, 0.0, 0.0, 0.0, 0.0, 0.0, 0.0, 0.0, 0.0, 0.0, 1.6961087770959237E9, 0.0, 2023-09-30 16:19:37.095
243.0, 143957.70656558353, 143917.02639067487, -148165.3330523173, -152101.74347183033, 144036.4070578107, -161550.07172227761, 104000.83410749843, -183428.27211955455, -0.108, 0.988, 0.012, 192.0, 0.0, 0.0, 0.0, 0.0, 0.0, 0.0, 0.0, 0.0, 0.0, 1.6961087770959623E9, 0.0, 2023-09-30 16:19:37.095
244.0, 143952.69977482557, 143911.88548945016, -148159.8345231813, -151959.85459802803, 144031.4896740305, -161527.9211435224, 104105.6190855049, -183432.29543355652, -0.114, 0.982, 0.006, 192.0, 252.0, 112.0, 30.0, 176.0, 0.0, 48.0, 0.0, 0.0, 0.0, 1.6961087770959852E9, 0.0, 2023-09-30 16:19:37.095
245.0, 143948.58705384578, 143907.79512021484, -148143.02601135088, -152035.91758440944, 144027.4440082841, -161524.9707132543, 104157.25161519667, -183447.80754420848, -0.114, 0.982, 0.006, 192.0, 0.0, 0.0, 0.0, 0.0, 0.0, 0.0, 0.0, 0.0, 0.0, 1.6961087770960112E9, 0.0, 2023-09-30 16:19:37.096
246.0, 143950.24108293548, 143909.65031500463, -148130.3525722447, -152279.685709439, 144028.91922341814, -161553.71505662383, 104029.33258167894, -183470.82984099744, -0.114, 0.982, 0.006, 192.0, 0.0, 0.0, 0.0, 0.0, 0.0, 0.0, 0.0, 0.0, 0.0, 1.6961087770960357E9, 0.0, 2023-09-30 16:19:37.096
247.0, 143951.6268910917, 143911.03612316085, -148156.0123748794, -152172.93377792047, 144030.37208680774, -161550.94344031138, 103982.90800844527, -183482.6092103254, -0.114, 0.982, 0.006, 192.0, 0.0, 0.0, 0.0, 0.0, 0.0, 0.0, 0.0, 0.0, 0.0, 1.696108777111467E9, 0.0, 2023-09-30 16:19:37.111
248.0, 143947.55887360082, 143906.74458822544, -148151.40791552162, -151986.4308221854, 144026.32642106133, -161525.46245163234, 104064.7600966406, -183495.17089070927, -0.114, 0.982, 0.006, 192.0, 0.0, 0.0, 0.0, 0.0, 0.0, 0.0, 0.0, 0.0, 0.0, 1.696108777387077E9, 0.0, 2023-09-30 16:19:37.387
249.0, 143939.3781351302, 143898.54149801034, -148134.68881066906, -152016.27040103322, 144018.1456825907, -161510.88911424746, 104131.2788881396, -183515.6674403748, -0.114, 0.982, 0.006, 192.0, 0.0, 0.0, 0.0, 0.0, 0.0, 0.0, 0.0, 0.0, 0.0, 1.6961087773871975E9, 0.0, 2023-09-30 16:19:37.387
250.0, 143939.55694908585, 143899.0108846439, -148121.70244714053, -152244.81698808874, 144018.25744131298, -161532.90558253595, 104024.25873568759, -183542.10955406542, -0.114, 0.982, 0.006, 192.0, 0.0, 0.0, 0.0, 0.0, 0.0, 0.0, 0.0, 0.0, 0.0, 1.696108777387236E9, 0.0, 2023-09-30 16:19:37.387
251.0, 143943.64731832116, 143903.1683091126, -148143.718915429, -152199.9793887114, 144022.28075531492, -161537.51004189375, 103949.26863304003, -183557.26403680613, -0.114, 0.982, 0.006, 192.0, 0.0, 0.0, 0.0, 0.0, 0.0, 0.0, 0.0, 0.0, 0.0, 1.6961087773872867E9, 0.0, 2023-09-30 16:19:37.387
252.0, 143942.7308967985, 143902.05072188983, -148152.25728181092, -151956.34537414854, 144021.56549949237, -161510.21856191382, 104030.91955553526, -183565.13185085438, -0.114, 0.982, 0.006, 192.0, 0.0, 0.0, 0.0, 0.0, 0.0, 0.0, 0.0, 0.0, 0.0, 1.696108777387314E9, 0.0, 2023-09-30 16:19:37.387
253.0, 143937.7241060405, 143896.95452415402, -148141.4166857501, -151925.6117255225, 144016.62576396772, -161491.15252389343, 104125.51213807013, -183576.59829575996, -0.114, 0.982, 0.006, 192.0, 0.0, 0.0, 0.0, 0.0, 0.0, 0.0, 0.0, 0.0, 0.0, 1.6961087773873324E9, 0.0, 2023-09-30 16:19:37.387
254.0, 143938.30525139635, 143897.7144834655, -148123.57999367476, -152111.68999811294, 144017.0504471124, -161505.9717304673, 104055.93115758077, -183586.6789325093, -0.122, 0.986, 0.004, 192.0, 252.0, 48.0, 30.0, 208.0, 0.0, 32.0, 0.0, 0.0, 0.0, 1.6961087773873477E9, 0.0, 2023-09-30 16:19:37.387
255.0, 143943.15557994315, 143902.69892247903, -148139.6732496826, -152139.69673391542, 144021.76666519247, -161517.12525095048, 103955.77299067653, -183583.21441211874, -0.122, 0.986, 0.004, 192.0, 0.0, 0.0, 0.0, 0.0, 0.0, 0.0, 0.0, 0.0, 0.0, 1.696108777387364E9, 0.0, 2023-09-30 16:19:37.387
0.0, 143940.9204054976, 143900.1731753556, -148148.4127817646, -151886.56322795906, 144019.71030470257, -161489.4761430593, 104015.2509826721, -183565.31066481004, -0.122, 0.986, 0.004, 192.0, 0.0, 0.0, 0.0, 0.0, 0.0, 0.0, 0.0, 0.0, 0.0, 1.6961087773873796E9, 0.0, 2023-09-30 16:19:37.387
1.0, 143935.8689112507, 143895.03227413088, -148137.5721857038, -151837.32233492404, 144014.81527266686, -161469.6054422385, 104114.00098967565, -183560.70620545224, -0.122, 0.986, 0.004, 192.0, 0.0, 0.0, 0.0, 0.0, 0.0, 0.0, 0.0, 0.0, 0.0, 1.6961087773873944E9, 0.0, 2023-09-30 16:19:37.387
2.0, 143934.19253041656, 143893.5570589968, -148122.708275641, -152005.69802590585, 144013.0941883438, -161479.59667201003, 104079.8698758924, -183570.22804859022, -0.122, 0.986, 0.004, 192.0, 0.0, 0.0, 0.0, 0.0, 0.0, 0.0, 0.0, 0.0, 0.0, 1.6961087773874092E9, 0.0, 2023-09-30 16:19:37.387
3.0, 143941.479199109, 143900.9107829226, -148135.98521184747, -152120.31777147268, 144020.11263610277, -161502.46250658782, 103971.3968600508, -183584.35435108596, -0.122, 0.986, 0.004, 192.0, 0.0, 0.0, 0.0, 0.0, 0.0, 0.0, 0.0, 0.0, 0.0, 1.6961087773874245E9, 0.0, 2023-09-30 16:19:37.387
4.0, 143940.60748107525, 143899.9273061666, -148150.53619748788, -151871.43109696283, 144019.240918069, -161480.37898306598, 104035.34520093742, -183579.70518823926, -0.122, 0.986, 0.004, 192.0, 0.0, 0.0, 0.0, 0.0, 0.0, 0.0, 0.0, 0.0, 0.0, 1.69610877738744E9, 0.0, 2023-09-30 16:19:37.387
5.0, 143934.34899262775, 143893.64646597463, -148139.18151130457, -151781.1300493634, 144013.25065055498, -161458.98836362225, 104165.85703681195, -183579.39226381687, -0.122, 0.986, 0.004, 192.0, 0.0, 0.0, 0.0, 0.0, 0.0, 0.0, 0.0, 0.0, 0.0, 1.6961087773874545E9, 0.0, 2023-09-30 16:19:37.387
6.0, 143933.18670191607, 143892.5735822408, -148124.87639485317, -151904.71284445678, 144012.02130460995, -161466.63266022597, 104195.13782204842, -183588.71294125475, -0.122, 0.986, 0.004, 192.0, 0.0, 0.0, 0.0, 0.0, 0.0, 0.0, 0.0, 0.0, 0.0, 1.696108777387468E9, 0.0, 2023-09-30 16:19:37.387
7.0, 143936.8747397512, 143896.462785776, -148124.31760124178, -152084.5549803442, 144015.66463895616, -161493.85708497252, 104091.02339637559, -183597.96656345922, -0.122, 0.986, 0.004, 192.0, 0.0, 0.0, 0.0, 0.0, 0.0, 0.0, 0.0, 0.0, 0.0, 1.696108777387482E9, 0.0, 2023-09-30 16:19:37.387
8.0, 143936.56181532884, 143895.90399216462, -148143.54010147337, -151871.4087452184, 144015.2846593004, -161478.34497432053, 104130.071893939, -183590.0763976665, -0.116, 0.986, 0.004, 192.0, 252.0, 96.0, 30.0, 208.0, 0.0, 32.0, 0.0, 0.0, 0.0, 1.696108777387495E9, 0.0, 2023-09-30 16:19:37.387
9.0, 143930.8174170038, 143889.98077988398, -148134.19707229105, -151756.56548220702, 144009.65201969768, -161456.4626164988, 104249.54196805262, -183584.30964759705, -0.116, 0.986, 0.004, 192.0, 0.0, 0.0, 0.0, 0.0, 0.0, 0.0, 0.0, 0.0, 0.0, 1.696108777387508E9, 0.0, 2023-09-30 16:19:37.387
10.0, 143927.08467567977, 143886.3150937933, -148115.64512439314, -151860.25522473519, 144005.89692662918, -161458.11664558848, 104289.68570109436, -183587.17067088734, -0.116, 0.986, 0.004, 192.0, 0.0, 0.0, 0.0, 0.0, 0.0, 0.0, 0.0, 0.0, 0.0, 1.6961087773875213E9, 0.0, 2023-09-30 16:19:37.387
11.0, 143933.23140540498, 143892.88650666314, -148111.95708655802, -152097.56369561717, 144011.82013890985, -161493.0300704277, 104157.02809775212, -183597.4301215923, -0.116, 0.986, 0.004, 192.0, 0.0, 0.0, 0.0, 0.0, 0.0, 0.0, 0.0, 0.0, 0.0, 1.6961087773875372E9, 0.0, 2023-09-30 16:19:37.387
12.0, 143935.84655950626, 143895.38990204214, -148134.33118275777, -151948.09758044453, 144014.4799965, -161489.0291081702, 104133.31289688504, -183591.64101977838, -0.116, 0.986, 0.004, 192.0, 0.0, 0.0, 0.0, 0.0, 0.0, 0.0, 0.0, 0.0, 0.0, 1.6961087773875513E9, 0.0, 2023-09-30 16:19:37.387
13.0, 143929.47631233648, 143888.75143393892, -148126.5080721984, -151800.95604669524, 144008.19915630808, -161466.02916312567, 104214.87441240245, -183583.90731619686, -0.116, 0.986, 0.004, 192.0, 0.0, 0.0, 0.0, 0.0, 0.0, 0.0, 0.0, 0.0, 0.0, 1.6961087773875647E9, 0.0, 2023-09-30 16:19:37.387
14.0, 143924.20130064504, 143883.454070503, -148115.04162729284, -151874.38152723093, 144002.96884810555, -161461.7152764458, 104252.80532274311, -183588.35531334346, -0.116, 0.986, 0.004, 192.0, 0.0, 0.0, 0.0, 0.0, 0.0, 0.0, 0.0, 0.0, 0.0, 1.6961087773875785E9, 0.0, 2023-09-30 16:19:37.387
15.0, 143927.59876580225, 143887.14210833813, -148111.35358945772, -152133.5500041902, 144006.29925802938, -161494.0806024171, 104113.44219606426, -183603.2415751507, -0.116, 0.986, 0.004, 192.0, 0.0, 0.0, 0.0, 0.0, 0.0, 0.0, 0.0, 0.0, 0.0, 1.6961087773875914E9, 0.0, 2023-09-30 16:19:37.387
16.0, 143928.49283558046, 143887.94677113852, -148121.2107087625, -152065.46659057937, 144007.1933278076, -161496.38283209596, 104047.10221852091, -183603.10746468397, -0.116, 0.986, 0.004, 192.0, 0.0, 0.0, 0.0, 0.0, 0.0, 0.0, 0.0, 0.0, 0.0, 1.6961087773876038E9, 0.0, 2023-09-30 16:19:37.387
17.0, 143923.68721052256, 143882.87292514718, -148124.04938030834, -151883.27752152414, 144002.36535100525, -161473.74051496276, 104127.12146367092, -183597.9889152037, -0.116, 0.986, 0.004, 192.0, 0.0, 0.0, 0.0, 0.0, 0.0, 0.0, 0.0, 0.0, 0.0, 1.6961087773876176E9, 0.0, 2023-09-30 16:19:37.387
18.0, 143919.50743430943, 143878.78255591186, -148113.65581913662, -151915.32992307306, 143998.40909223666, -161466.54325324815, 104206.09017683151, -183603.17451991732, -0.116, 0.986, 0.004, 192.0, 0.0, 0.0, 0.0, 0.0, 0.0, 0.0, 0.0, 0.0, 0.0, 1.6961087773876295E9, 0.0, 2023-09-30 16:19:37.387
19.0, 143922.36845759972, 143881.84474490222, -148106.0562260218, -152153.59951896663, 144001.1360050602, -161495.1311344065, 104107.2284111057, -183615.2444619232, -0.11800000000000001, 0.986, 0.002, 192.0, 252.0, 80.0, 30.0, 208.0, 0.0, 16.0, 0.0, 0.0, 0.0, 1.6961087773876443E9, 0.0, 2023-09-30 16:19:37.387
20.0, 143923.41898958912, 143882.82822165827, -148114.99692380393, -152149.03976309774, 144002.00772309396, -161504.6753292889, 104021.28595367503, -183612.47284561073, -0.11800000000000001, 0.986, 0.002, 192.0, 0.0, 0.0, 0.0, 0.0, 0.0, 0.0, 0.0, 0.0, 0.0, 1.6961087773876636E9, 0.0, 2023-09-30 16:19:37.387
21.0, 143916.91463195262, 143876.16740181058, -148116.85211859373, -151925.9022982004, 143995.65982766866, -161478.90376793192, 104088.76587018561, -183597.8771564814, -0.11800000000000001, 0.986, 0.002, 192.0, 0.0, 0.0, 0.0, 0.0, 0.0, 0.0, 0.0, 0.0, 0.0, 1.6961087773876836E9, 0.0, 2023-09-30 16:19:37.387
22.0, 143912.19841387254, 143871.27236977487, -148110.83949933524, -151910.32313231507, 143990.92125784414, -161466.3644392925, 104181.30209223057, -183594.54674655758, -0.11800000000000001, 0.986, 0.002, 192.0, 0.0, 0.0, 0.0, 0.0, 0.0, 0.0, 0.0, 0.0, 0.0, 1.6961087773877108E9, 0.0, 2023-09-30 16:19:37.387
23.0, 143912.84661446174, 143872.16643955308, -148092.89104853763, -152106.41498642147, 143991.52475494443, -161486.8162854691, 104123.90281246934, -183599.2853163821, -0.11800000000000001, 0.986, 0.002, 192.0, 0.0, 0.0, 0.0, 0.0, 0.0, 0.0, 0.0, 0.0, 0.0, 1.696108777387736E9, 0.0, 2023-09-30 16:19:37.387
24.0, 143918.43455057556, 143877.9108378781, -148114.23696449245, -152166.45177202843, 143997.06798756935, -161506.66463454542, 104030.22665145715, -183600.4923105827, -0.11800000000000001, 0.986, 0.002, 192.0, 0.0, 0.0, 0.0, 0.0, 0.0, 0.0, 0.0, 0.0, 0.0, 1.6961087773877676E9, 0.0, 2023-09-30 16:19:37.387
25.0, 143920.04387617635, 143879.27429428988, -148132.83361587927, -151909.13848985895, 143998.67731317013, -161487.35272733602, 104111.83287046348, -183591.79748198958, -0.11800000000000001, 0.986, 0.002, 192.0, 0.0, 0.0, 0.0, 0.0, 0.0, 0.0, 0.0, 0.0, 0.0, 1.6961087773878012E9, 0.0, 2023-09-30 16:19:37.387
26.0, 143916.2217278745, 143875.452145988, -148123.15531053013, -151845.10074199448, 143994.98927533498, -161471.39358179492, 104240.84713945951, -183590.9704674447, -0.11800000000000001, 0.986, 0.002, 192.0, 0.0, 0.0, 0.0, 0.0, 0.0, 0.0, 0.0, 0.0, 0.0, 1.696108777387842E9, 0.0, 2023-09-30 16:19:37.387
