%OpenBCI Raw EXG Data
%Number of channels = 8
%Sample Rate = 250 Hz
%Board = OpenBCI_GUI$BoardCytonSerial
Sample Index, EXG Channel 0, EXG Channel 1, EXG Channel 2, EXG Channel 3, EXG Channel 4, EXG Channel 5, EXG Channel 6, EXG Channel 7, Accel Channel 0, Accel Channel 1, Accel Channel 2, Other, Other, Other, Other, Other, Other, Other, Analog Channel 0, Analog Channel 1, Analog Channel 2, Timestamp, Other, Timestamp (Formatted)
6.0, 156436.8196054482, 148370.29854897244, -161789.21303620495, -162172.65721233573, 156523.85729835718, -163016.74848994595, 130631.99885272967, -47235.852150422594, -0.06, 0.992, -0.064, 192.0, 254.0, 32.0, 31.0, 0.0, 254.0, 0.0, 0.0, 0.0, 0.0, 1.69610899253473E9, 0.0, 2023-09-30 16:23:12.534
7.0, 156435.74672171436, 148171.01039540893, -161809.7989928483, -162087.02767932747, 156522.4938419454, -162903.0451659018, 130605.84731171696, -47099.975895878786, -0.06, 0.992, -0.064, 192.0, 0.0, 0.0, 0.0, 0.0, 0.0, 0.0, 0.0, 0.0, 0.0, 1.6961089925347483E9, 0.0, 2023-09-30 16:23:12.534
8.0, 156429.39882628905, 147554.57163507602, -161807.40735619157, -161962.7296284115, 156515.94478082, -162629.6386277245, 130674.86949859496, -47041.74960157271, -0.06, 0.992, -0.064, 192.0, 0.0, 0.0, 0.0, 0.0, 0.0, 0.0, 0.0, 0.0, 0.0, 1.6961089925347607E9, 0.0, 2023-09-30 16:23:12.534
9.0, 156425.68843670946, 147319.20776596162, -161803.27228346735, -162026.45445185358, 156512.6367226406, -162599.17320003192, 130726.81495270909, -47117.164387364915, -0.06, 0.992, -0.064, 192.0, 0.0, 0.0, 0.0, 0.0, 0.0, 0.0, 0.0, 0.0, 0.0, 1.696108992534772E9, 0.0, 2023-09-30 16:23:12.534
10.0, 156434.85265193615, 148235.76339909594, -161789.57066411624, -162168.4327326337, 156522.0915105452, -163002.0186903499, 130648.69560583778, -47212.025190833236, -0.06, 0.992, -0.064, 192.0, 0.0, 0.0, 0.0, 0.0, 0.0, 0.0, 0.0, 0.0, 0.0, 1.6961089925347831E9, 0.0, 2023-09-30 16:23:12.534
11.0, 156439.83709094967, 148272.26379779147, -161817.689158641, -162099.72347017808, 156526.71832164747, -162991.40161173363, 130602.13692213738, -47094.142090575944, -0.06, 0.992, -0.064, 192.0, 0.0, 0.0, 0.0, 0.0, 0.0, 0.0, 0.0, 0.0, 0.0, 1.6961089925347948E9, 0.0, 2023-09-30 16:23:12.534
12.0, 156434.33856181367, 147681.12721218195, -161818.76204237487, -161949.16211952711, 156520.7504058779, -162692.49173313283, 130670.73442587072, -47000.66709526385, -0.06, 0.992, -0.064, 192.0, 0.0, 0.0, 0.0, 0.0, 0.0, 0.0, 0.0, 0.0, 0.0, 1.6961089925348055E9, 0.0, 2023-09-30 16:23:12.534
13.0, 156429.55528850024, 147288.63057954676, -161812.10122252718, -161971.15623607114, 156516.3918157091, -162595.50751394124, 130744.83045874006, -47063.43079369436, -0.06, 0.992, -0.064, 192.0, 0.0, 0.0, 0.0, 0.0, 0.0, 0.0, 0.0, 0.0, 0.0, 1.6961089925348244E9, 0.0, 2023-09-30 16:23:12.534
14.0, 156436.70784672594, 148090.34294966972, -161794.04101300729, -162141.7671014985, 156523.87965010162, -162959.79624507384, 130690.91805111385, -47180.486879406795, -0.06, 0.992, -0.064, 192.0, 0.0, 0.0, 0.0, 0.0, 0.0, 0.0, 0.0, 0.0, 0.0, 1.6961089925348365E9, 0.0, 2023-09-30 16:23:12.534
15.0, 156442.7204659844, 148390.45982247114, -161813.46467893897, -162123.19280185614, 156529.78051063782, -163073.4548656291, 130632.82586727451, -47104.37918953648, -0.06, 0.992, -0.064, 192.0, 0.0, 0.0, 0.0, 0.0, 0.0, 0.0, 0.0, 0.0, 0.0, 1.696108992534848E9, 0.0, 2023-09-30 16:23:12.534
16.0, 156443.61453576264, 147838.10351349157, -161828.3956442351, -161956.0688085638, 156530.07108331576, -162769.4711410369, 130701.04339135211, -46977.93537115281, -0.06, 0.986, -0.07200000000000001, 192.0, 254.0, 32.0, 30.0, 208.0, 253.0, 192.0, 0.0, 0.0, 0.0, 1.6961089925348597E9, 0.0, 2023-09-30 16:23:12.534
17.0, 156438.36187581564, 147378.55164749047, -161819.87962959762, -161935.46050017604, 156524.97488557996, -162618.86508689704, 130792.30556396313, -47017.9002902389, -0.06, 0.986, -0.07200000000000001, 192.0, 0.0, 0.0, 0.0, 0.0, 0.0, 0.0, 0.0, 0.0, 0.0, 1.6961089925348718E9, 0.0, 2023-09-30 16:23:12.534
18.0, 156440.88762293907, 147975.94672154746, -161798.8913415541, -162105.84784815882, 156527.65709491458, -162918.89255272062, 130759.22498216928, -47140.54431206516, -0.06, 0.986, -0.07200000000000001, 192.0, 0.0, 0.0, 0.0, 0.0, 0.0, 0.0, 0.0, 0.0, 0.0, 1.6961089925348835E9, 0.0, 2023-09-30 16:23:12.534
19.0, 156450.65533526606, 148497.7034923677, -161816.97390281843, -162149.0761219354, 156537.4024554971, -163157.25155559203, 130672.70137938278, -47111.88937567346, -0.06, 0.986, -0.07200000000000001, 192.0, 0.0, 0.0, 0.0, 0.0, 0.0, 0.0, 0.0, 0.0, 0.0, 1.6961089925348947E9, 0.0, 2023-09-30 16:23:12.534
20.0, 156449.3142305987, 147975.11970700262, -161829.17795529103, -161984.0308408774, 156535.72607466293, -162879.37466852364, 130711.83928392403, -46964.837248902, -0.06, 0.986, -0.07200000000000001, 192.0, 0.0, 0.0, 0.0, 0.0, 0.0, 0.0, 0.0, 0.0, 0.0, 1.6961089925349064E9, 0.0, 2023-09-30 16:23:12.534
21.0, 156440.30647758325, 147476.04995680452, -161820.438423209, -161937.0698257768, 156526.8524321142, -162699.48782914734, 130802.36384896802, -46979.94702815379, -0.06, 0.986, -0.07200000000000001, 192.0, 0.0, 0.0, 0.0, 0.0, 0.0, 0.0, 0.0, 0.0, 0.0, 1.696108992534917E9, 0.0, 2023-09-30 16:23:12.534
22.0, 156441.78169271728, 147839.71283909236, -161808.77081260335, -162091.83330438536, 156528.3947024816, -162918.93725620952, 130799.59223265556, -47094.566773720595, -0.06, 0.986, -0.07200000000000001, 192.0, 0.0, 0.0, 0.0, 0.0, 0.0, 0.0, 0.0, 0.0, 0.0, 1.696108992534928E9, 0.0, 2023-09-30 16:23:12.534
23.0, 156451.4152945775, 148559.6625279978, -161812.12357427165, -162179.76506707253, 156537.93889736402, -163262.9753068656, 130708.62063272246, -47110.235346583766, -0.06, 0.986, -0.07200000000000001, 192.0, 0.0, 0.0, 0.0, 0.0, 0.0, 0.0, 0.0, 0.0, 0.0, 1.6961089925349388E9, 0.0, 2023-09-30 16:23:12.534
24.0, 156449.98478293238, 148111.06301677978, -161833.33537975972, -162028.4437571101, 156536.46368222998, -163028.23728659598, 130735.93446444685, -46942.88783584689, -0.06, 0.986, -0.07200000000000001, 192.0, 0.0, 0.0, 0.0, 0.0, 0.0, 0.0, 0.0, 0.0, 0.0, 1.6961089925349498E9, 0.0, 2023-09-30 16:23:12.534
25.0, 156442.04991365076, 147622.0515515866, -161820.86310635367, -161946.79283461487, 156528.3947024816, -162816.11923171513, 130832.73986968279, -46919.91024254683, -0.06, 0.986, -0.07200000000000001, 192.0, 0.0, 0.0, 0.0, 0.0, 0.0, 0.0, 0.0, 0.0, 0.0, 1.6961089925349617E9, 0.0, 2023-09-30 16:23:12.534
26.0, 156439.05477989375, 147747.9812798478, -161803.62991137864, -162075.18125476615, 156525.5336791913, -162956.33172468326, 130851.44827979188, -47019.777836773144, -0.06, 0.986, -0.07200000000000001, 192.0, 0.0, 0.0, 0.0, 0.0, 0.0, 0.0, 0.0, 0.0, 0.0, 1.6961089925349736E9, 0.0, 2023-09-30 16:23:12.534
27.0, 156446.7214282419, 148583.19891490924, -161796.45500140847, -162189.59983463286, 156533.13327230612, -163379.38319198886, 130751.9606652213, -47075.99247407824, -0.058, 0.974, -0.062, 192.0, 254.0, 48.0, 30.0, 112.0, 254.0, 16.0, 0.0, 0.0, 0.0, 1.6961089925349853E9, 0.0, 2023-09-30 16:23:12.534
28.0, 156448.3754573316, 148265.51357096597, -161831.3013710143, -162075.31536523288, 156535.03317058482, -163227.23486748157, 130754.08408094455, -46921.58662338098, -0.058, 0.974, -0.062, 192.0, 0.0, 0.0, 0.0, 0.0, 0.0, 0.0, 0.0, 0.0, 0.0, 1.696108992535022E9, 0.0, 2023-09-30 16:23:12.535
29.0, 156442.3181345842, 147723.64023013596, -161819.7902226198, -161973.5255209834, 156528.66292341508, -162995.44727748004, 130840.54062849768, -46888.90837298732, -0.058, 0.974, -0.062, 192.0, 0.0, 0.0, 0.0, 0.0, 0.0, 0.0, 0.0, 0.0, 0.0, 1.6961089925350332E9, 0.0, 2023-09-30 16:23:12.535
30.0, 156436.01494264783, 147639.3965052839, -161809.8436963372, -162063.87127207176, 156522.4938419454, -163048.9350019616, 130888.44041686541, -46993.291019593606, -0.058, 0.974, -0.062, 192.0, 0.0, 0.0, 0.0, 0.0, 0.0, 0.0, 0.0, 0.0, 0.0, 1.696108992535044E9, 0.0, 2023-09-30 16:23:12.535
31.0, 156442.83222470668, 148518.87059436686, -161793.8398473072, -162193.80196259046, 156529.10995830418, -163499.94850158077, 130799.65928788894, -47097.53955573316, -0.058, 0.974, -0.062, 192.0, 0.0, 0.0, 0.0, 0.0, 0.0, 0.0, 0.0, 0.0, 0.0, 1.6961089925350552E9, 0.0, 2023-09-30 16:23:12.535
32.0, 156444.59801251866, 148373.6289588963, -161823.43355696602, -162118.74480470954, 156531.0992635607, -163459.76006505016, 130769.28326717416, -46979.29882756458, -0.058, 0.974, -0.062, 192.0, 0.0, 0.0, 0.0, 0.0, 0.0, 0.0, 0.0, 0.0, 0.0, 1.6961089925350664E9, 0.0, 2023-09-30 16:23:12.535
33.0, 156438.674800238, 147776.72562321732, -161811.3412632157, -161990.55755025835, 156524.81842336876, -163214.04733825295, 130838.12664009651, -46922.65950711483, -0.058, 0.974, -0.062, 192.0, 0.0, 0.0, 0.0, 0.0, 0.0, 0.0, 0.0, 0.0, 0.0, 1.696108992535077E9, 0.0, 2023-09-30 16:23:12.535
34.0, 156430.71757921192, 147458.19091298472, -161794.86802755215, -162051.64486785472, 156517.17412676505, -163196.6129775778, 130873.26358238026, -47026.70687755429, -0.058, 0.974, -0.062, 192.0, 0.0, 0.0, 0.0, 0.0, 0.0, 0.0, 0.0, 0.0, 0.0, 1.696108992535088E9, 0.0, 2023-09-30 16:23:12.535
35.0, 156435.85848043664, 148220.89948903318, -161777.70188781046, -162208.6882243977, 156522.62795241212, -163638.03757882566, 130747.60207505252, -47186.365388198545, -0.058, 0.974, -0.062, 192.0, 0.0, 0.0, 0.0, 0.0, 0.0, 0.0, 0.0, 0.0, 0.0, 1.6961089925351129E9, 0.0, 2023-09-30 16:23:12.535
36.0, 156440.39588456106, 148310.39587383223, -161808.2790742253, -162164.1188459538, 156526.96419083647, -163694.2969196197, 130666.8452223355, -47120.718314733305, -0.058, 0.974, -0.062, 192.0, 0.0, 0.0, 0.0, 0.0, 0.0, 0.0, 0.0, 0.0, 0.0, 1.6961089925351324E9, 0.0, 2023-09-30 16:23:12.535
37.0, 156433.64565773556, 147677.03684294663, -161803.2946352118, -162053.58946962233, 156519.81163261077, -163405.60178823493, 130710.92286240136, -47049.84093306553, -0.06, 0.97, -0.048, 192.0, 254.0, 32.0, 30.0, 80.0, 254.0, 128.0, 0.0, 0.0, 0.0, 1.696108992535143E9, 0.0, 2023-09-30 16:23:12.535
38.0, 156424.52614599778, 147215.58507866683, -161802.26645496686, -162068.96746980757, 156511.07210052875, -163288.52335077804, 130776.65934284442, -47133.034125928185, -0.06, 0.97, -0.048, 192.0, 0.0, 0.0, 0.0, 0.0, 0.0, 0.0, 0.0, 0.0, 0.0, 1.6961089925351536E9, 0.0, 2023-09-30 16:23:12.535
39.0, 156431.34342805666, 147968.39183192156, -161792.52109438434, -162188.14697124326, 156518.55993492127, -163620.24559023924, 130720.95879566179, -47277.26993289828, -0.06, 0.97, -0.048, 192.0, 0.0, 0.0, 0.0, 0.0, 0.0, 0.0, 0.0, 0.0, 0.0, 1.6961089925351646E9, 0.0, 2023-09-30 16:23:12.535
40.0, 156441.4687682949, 148363.0789355134, -161812.30238822728, -162169.99735474557, 156528.5511646928, -163751.31621972518, 130648.42738490432, -47238.176731845946, -0.06, 0.97, -0.048, 192.0, 0.0, 0.0, 0.0, 0.0, 0.0, 0.0, 0.0, 0.0, 0.0, 1.696108992535175E9, 0.0, 2023-09-30 16:23:12.535
41.0, 156438.25011709335, 147774.22222783833, -161816.7503853739, -162025.1356989307, 156524.57255417976, -163424.08668089946, 130691.05216158059, -47132.0730009166, -0.06, 0.97, -0.048, 192.0, 0.0, 0.0, 0.0, 0.0, 0.0, 0.0, 0.0, 0.0, 0.0, 1.6961089925351853E9, 0.0, 2023-09-30 16:23:12.535
42.0, 156432.28220132377, 147185.1420027187, -161805.4851061684, -162008.50600105597, 156518.9846180659, -163234.78975710747, 130757.23567691275, -47192.55682141266, -0.06, 0.97, -0.048, 192.0, 0.0, 0.0, 0.0, 0.0, 0.0, 0.0, 0.0, 0.0, 0.0, 1.696108992535196E9, 0.0, 2023-09-30 16:23:12.535
43.0, 156432.90805016854, 147699.16506995738, -161789.61536760515, -162145.34338061136, 156520.37042622216, -163472.76878032312, 130716.26492932618, -47320.453503185934, -0.06, 0.97, -0.048, 192.0, 0.0, 0.0, 0.0, 0.0, 0.0, 0.0, 0.0, 0.0, 0.0, 1.6961089925352063E9, 0.0, 2023-09-30 16:23:12.535
44.0, 156438.7195037269, 148333.93226074366, -161806.7368038579, -162171.3384594129, 156526.5842111807, -163701.20360865636, 130628.82490501701, -47288.7587295483, -0.06, 0.97, -0.048, 192.0, 0.0, 0.0, 0.0, 0.0, 0.0, 0.0, 0.0, 0.0, 0.0, 1.696108992535217E9, 0.0, 2023-09-30 16:23:12.535
45.0, 156437.98189615988, 147792.59536178058, -161819.72316738643, -162012.86459122476, 156524.438443713, -163384.3676310024, 130664.20771648976, -47118.5725472656, -0.06, 0.97, -0.048, 192.0, 0.0, 0.0, 0.0, 0.0, 0.0, 0.0, 0.0, 0.0, 0.0, 1.6961089925352285E9, 0.0, 2023-09-30 16:23:12.535
46.0, 156429.89056466706, 147129.30734506933, -161804.85925732367, -161955.19709053007, 156516.70474013148, -163154.63640149074, 130740.20364763781, -47126.038029913674, -0.06, 0.97, -0.048, 192.0, 0.0, 0.0, 0.0, 0.0, 0.0, 0.0, 0.0, 0.0, 0.0, 1.6961089925352392E9, 0.0, 2023-09-30 16:23:12.535
47.0, 156429.48823326686, 147400.9480954347, -161795.89620779708, -162098.8517521443, 156516.70474013148, -163314.6972435352, 130722.2999003291, -47245.642214494015, -0.066, 0.9560000000000001, -0.054, 192.0, 253.0, 240.0, 29.0, 224.0, 254.0, 80.0, 0.0, 0.0, 0.0, 1.6961089925352497E9, 0.0, 2023-09-30 16:23:12.535
48.0, 156439.65827699404, 148242.9383090661, -161798.86898980965, -162180.5920816174, 156526.36069373618, -163656.99185812377, 130612.61989028692, -47284.15427019051, -0.066, 0.9560000000000001, -0.054, 192.0, 0.0, 0.0, 0.0, 0.0, 0.0, 0.0, 0.0, 0.0, 0.0, 1.6961089925352602E9, 0.0, 2023-09-30 16:23:12.535
49.0, 156439.7700357163, 147720.57804114558, -161817.95737957448, -162053.6565248557, 156526.27128675836, -163432.66975077032, 130605.44498031677, -47157.86691401803, -0.066, 0.9560000000000001, -0.054, 192.0, 0.0, 0.0, 0.0, 0.0, 0.0, 0.0, 0.0, 0.0, 0.0, 1.6961089925352733E9, 0.0, 2023-09-30 16:23:12.535
50.0, 156433.8244716912, 147002.9976371524, -161811.5424289158, -161973.34670702775, 156520.90686808908, -163200.5245328575, 130671.27086773765, -47175.949475282374, -0.066, 0.9560000000000001, -0.054, 192.0, 0.0, 0.0, 0.0, 0.0, 0.0, 0.0, 0.0, 0.0, 0.0, 1.696108992535284E9, 0.0, 2023-09-30 16:23:12.535
51.0, 156431.54459375676, 147045.44359987302, -161801.2382747219, -162075.11419953278, 156519.07402504375, -163279.4932460181, 130688.05702782358, -47308.22709896888, -0.066, 0.9560000000000001, -0.054, 192.0, 0.0, 0.0, 0.0, 0.0, 0.0, 0.0, 0.0, 0.0, 0.0, 1.6961089925352948E9, 0.0, 2023-09-30 16:23:12.535
52.0, 156439.47946303838, 148008.71437891893, -161789.16833271604, -162189.64453812176, 156526.5395076918, -163695.638024287, 130566.64235194236, -47429.61942310565, -0.066, 0.9560000000000001, -0.054, 192.0, 0.0, 0.0, 0.0, 0.0, 0.0, 0.0, 0.0, 0.0, 0.0, 1.6961089925353048E9, 0.0, 2023-09-30 16:23:12.535
53.0, 156442.2734310953, 147712.2631922082, -161823.3888534771, -162097.24242654353, 156529.13231004862, -163559.69471450982, 130534.14291550433, -47338.31254700572, -0.066, 0.9560000000000001, -0.054, 192.0, 0.0, 0.0, 0.0, 0.0, 0.0, 0.0, 0.0, 0.0, 0.0, 1.6961089925353153E9, 0.0, 2023-09-30 16:23:12.535
54.0, 156435.14322461406, 146997.63321848313, -161814.8951905841, -161983.56145424384, 156522.31502798977, -163294.78183922553, 130604.26033786063, -47338.357250494635, -0.066, 0.9560000000000001, -0.054, 192.0, 0.0, 0.0, 0.0, 0.0, 0.0, 0.0, 0.0, 0.0, 0.0, 1.6961089925353255E9, 0.0, 2023-09-30 16:23:12.535
55.0, 156429.24236407786, 146773.1993524074, -161799.3383764432, -162063.17836799365, 156516.92825757604, -163299.98979568362, 130628.579035828, -47485.74465343293, -0.066, 0.9560000000000001, -0.054, 192.0, 0.0, 0.0, 0.0, 0.0, 0.0, 0.0, 0.0, 0.0, 0.0, 1.696108992535336E9, 0.0, 2023-09-30 16:23:12.535
56.0, 156434.22680309138, 147777.35147206206, -161788.56483561575, -162192.10323001185, 156521.46566170047, -163718.70502456487, 130521.13420023135, -47645.604329777285, -0.066, 0.9560000000000001, -0.054, 192.0, 0.0, 0.0, 0.0, 0.0, 0.0, 0.0, 0.0, 0.0, 0.0, 1.6961089925353465E9, 0.0, 2023-09-30 16:23:12.535
57.0, 156437.44545429296, 147724.1543202584, -161813.8893620836, -162121.24820008854, 156524.3937402241, -163679.56712002362, 130468.60760076137, -47584.04762554737, -0.06, 0.9440000000000001, -0.062, 192.0, 254.0, 32.0, 29.0, 128.0, 254.0, 16.0, 0.0, 0.0, 0.0, 1.6961089925353572E9, 0.0, 2023-09-30 16:23:12.535
58.0, 156431.20931758994, 146971.0793460702, -161807.51911491386, -161996.6372247502, 156518.51523143236, -163405.53473300158, 130517.5579211185, -47571.9776835415, -0.06, 0.9440000000000001, -0.062, 192.0, 0.0, 0.0, 0.0, 0.0, 0.0, 0.0, 0.0, 0.0, 0.0, 1.6961089925353675E9, 0.0, 2023-09-30 16:23:12.535
59.0, 156423.29680005275, 146540.16006471636, -161794.04101300729, -162044.13468171773, 156511.5861906512, -163359.44543593473, 130552.04666281304, -47721.64496441424, -0.06, 0.9440000000000001, -0.062, 192.0, 0.0, 0.0, 0.0, 0.0, 0.0, 0.0, 0.0, 0.0, 0.0, 1.6961089925353777E9, 0.0, 2023-09-30 16:23:12.535
60.0, 156428.70592221094, 147491.09268082294, -161791.3364519282, -162180.70384033964, 156516.5929814092, -163759.161682029, 130472.78737697452, -47897.53084153305, -0.06, 0.9440000000000001, -0.062, 192.0, 0.0, 0.0, 0.0, 0.0, 0.0, 0.0, 0.0, 0.0, 0.0, 1.6961089925353882E9, 0.0, 2023-09-30 16:23:12.535
61.0, 156436.14905311455, 147747.84716938104, -161817.42093770756, -162136.02270317348, 156523.20909776798, -163838.46567135642, 130423.21120777265, -47848.93814908721, -0.06, 0.9440000000000001, -0.062, 192.0, 0.0, 0.0, 0.0, 0.0, 0.0, 0.0, 0.0, 0.0, 0.0, 1.6961089925353987E9, 0.0, 2023-09-30 16:23:12.535
62.0, 156431.03050363428, 146939.45162766596, -161801.57355088874, -162004.01330042045, 156518.55993492127, -163581.37590663147, 130448.96041738515, -47816.99750626058, -0.06, 0.9440000000000001, -0.062, 192.0, 0.0, 0.0, 0.0, 0.0, 0.0, 0.0, 0.0, 0.0, 0.0, 1.6961089925354092E9, 0.0, 2023-09-30 16:23:12.535
63.0, 156420.45812850693, 146223.43584578467, -161772.2927656523, -162046.258097441, 156509.37336795015, -163530.03394961762, 130442.54546672649, -47999.07481659351, -0.06, 0.9440000000000001, -0.062, 192.0, 0.0, 0.0, 0.0, 0.0, 0.0, 0.0, 0.0, 0.0, 0.0, 1.6961089925354195E9, 0.0, 2023-09-30 16:23:12.535
64.0, 156416.43481450496, 146809.67739935845, -161749.44928281897, -162220.71346291466, 156505.30535045927, -163965.6023938182, 130273.78979608892, -48299.57166905066, -0.06, 0.9440000000000001, -0.062, 192.0, 0.0, 0.0, 0.0, 0.0, 0.0, 0.0, 0.0, 0.0, 0.0, 1.6961089925354297E9, 0.0, 2023-09-30 16:23:12.535
65.0, 156416.79244241625, 147131.09548462575, -161754.81370148822, -162236.91847764474, 156505.0371295258, -164277.99037432557, 130067.12556685515, -48438.35365037366, -0.06, 0.9440000000000001, -0.062, 192.0, 0.0, 0.0, 0.0, 0.0, 0.0, 0.0, 0.0, 0.0, 0.0, 1.69610899253544E9, 0.0, 2023-09-30 16:23:12.535
66.0, 156408.4775934789, 146188.99180757903, -161766.190739416, -162170.60085184584, 156498.51042014486, -164081.5185405634, 130009.72628709392, -48461.01831925134, -0.06, 0.9440000000000001, -0.062, 192.0, 0.0, 0.0, 0.0, 0.0, 0.0, 0.0, 0.0, 0.0, 0.0, 1.6961089925354505E9, 0.0, 2023-09-30 16:23:12.535
67.0, 156384.49417167835, 145395.68369337128, -161745.76124498382, -162183.16253222973, 156488.22861769542, -163997.14070524464, 129989.45325487296, -48651.455182010555, -0.06, 0.9440000000000001, -0.062, 192.0, 0.0, 0.0, 0.0, 0.0, 0.0, 0.0, 0.0, 0.0, 0.0, 1.6961089925354607E9, 0.0, 2023-09-30 16:23:12.535
68.0, 156366.0092790138, 145771.5059246428, -161728.21512558643, -162253.48112028613, 156482.2830536703, -164344.12918616884, 129839.13777341101, -48963.7090520512, -0.06, 0.9580000000000001, -0.08600000000000001, 192.0, 254.0, 32.0, 29.0, 240.0, 253.0, 80.0, 0.0, 0.0, 0.0, 1.6961089925354707E9, 0.0, 2023-09-30 16:23:12.535
69.0, 156393.09959329362, 146525.76554128714, -161740.17330887, -162316.04365301653, 156486.14990546106, -164720.10787965154, 129646.97982632874, -49142.81358037157, -0.06, 0.9580000000000001, -0.08600000000000001, 192.0, 0.0, 0.0, 0.0, 0.0, 0.0, 0.0, 0.0, 0.0, 0.0, 1.6961089925354812E9, 0.0, 2023-09-30 16:23:12.535
70.0, 156355.10162771962, 145637.75308582225, -161727.20929708594, -162187.0293840205, 156478.5950158352, -164544.087892066, 129552.52135426062, -49185.32659832556, -0.06, 0.9580000000000001, -0.08600000000000001, 192.0, 0.0, 0.0, 0.0, 0.0, 0.0, 0.0, 0.0, 0.0, 0.0, 1.6961089925354931E9, 0.0, 2023-09-30 16:23:12.535
71.0, 155991.88578032088, 144673.85645793157, -161701.5718461957, -162137.22969737407, 156463.0829051832, -164440.9569431492, 129474.93844925624, -49408.44171147844, -0.06, 0.9580000000000001, -0.08600000000000001, 192.0, 0.0, 0.0, 0.0, 0.0, 0.0, 0.0, 0.0, 0.0, 0.0, 1.6961089925355039E9, 0.0, 2023-09-30 16:23:12.535
72.0, 155688.7961255069, 144745.06911576618, -161696.69916590443, -162190.49390441107, 156453.53871030078, -164682.31107977763, 129326.20994165062, -49719.9356222076, -0.06, 0.9580000000000001, -0.08600000000000001, 192.0, 0.0, 0.0, 0.0, 0.0, 0.0, 0.0, 0.0, 0.0, 0.0, 1.6961089925355144E9, 0.0, 2023-09-30 16:23:12.535
73.0, 156032.5212517406, 145571.25664606772, -161701.19186653994, -162369.19610133127, 156455.4833120684, -165154.37992267372, 129068.51667982539, -49976.868924721355, -0.06, 0.9580000000000001, -0.08600000000000001, 192.0, 0.0, 0.0, 0.0, 0.0, 0.0, 0.0, 0.0, 0.0, 0.0, 1.696108992535624E9, 0.0, 2023-09-30 16:23:12.535
74.0, 155735.98065805205, 144772.0700230682, -161677.18609299496, -162144.33755211087, 156446.3190968417, -165066.00112509742, 128897.50348299784, -50054.3624227479, -0.06, 0.9580000000000001, -0.08600000000000001, 192.0, 0.0, 0.0, 0.0, 0.0, 0.0, 0.0, 0.0, 0.0, 0.0, 1.6961089925356348E9, 0.0, 2023-09-30 16:23:12.535
75.0, 154986.63842518788, 143789.08500541272, -161661.24929919833, -162049.83437655383, 156430.35995130063, -164936.20454504545, 128801.79331324021, -50267.486306129256, -0.06, 0.9580000000000001, -0.08600000000000001, 192.0, 0.0, 0.0, 0.0, 0.0, 0.0, 0.0, 0.0, 0.0, 0.0, 1.696108992535646E9, 0.0, 2023-09-30 16:23:12.535
76.0, 154596.60048444278, 143610.2486980258, -161663.12684573256, -162103.38915626873, 156421.28514305176, -165086.00593638493, 128674.79070124516, -50597.040426378306, -0.06, 0.9580000000000001, -0.08600000000000001, 192.0, 0.0, 0.0, 0.0, 0.0, 0.0, 0.0, 0.0, 0.0, 0.0, 1.69610899253566E9, 0.0, 2023-09-30 16:23:12.535
77.0, 155046.47404509474, 144657.27146354574, -161672.06754351468, -162291.32262364897, 156426.09076810966, -165563.30508748355, 128462.24796321965, -50889.535354320455, -0.06, 0.9580000000000001, -0.08600000000000001, 192.0, 0.0, 0.0, 0.0, 0.0, 0.0, 0.0, 0.0, 0.0, 0.0, 1.6961089925356715E9, 0.0, 2023-09-30 16:23:12.535
78.0, 154927.62981982587, 144183.9285712157, -161663.52917713276, -162146.84094748987, 156424.39203553105, -165533.71137782471, 128307.61859507783, -50982.719776954626, -0.06, 0.98, -0.1, 192.0, 254.0, 32.0, 30.0, 160.0, 252.0, 224.0, 0.0, 0.0, 0.0, 1.6961089925356824E9, 0.0, 2023-09-30 16:23:12.535
79.0, 154252.8083029757, 143126.7357619686, -161634.0025227073, -162044.87228928474, 156408.49994522333, -165389.3861638768, 128190.3613436653, -51210.14877678738, -0.06, 0.98, -0.1, 192.0, 0.0, 0.0, 0.0, 0.0, 0.0, 0.0, 0.0, 0.0, 0.0, 1.6961089925356927E9, 0.0, 2023-09-30 16:23:12.535
80.0, 153817.84335587543, 142742.21870210394, -161639.63516231003, -162053.32124868885, 156396.9217415955, -165464.08569384643, 128081.06131327884, -51553.33746115416, -0.06, 0.98, -0.1, 192.0, 0.0, 0.0, 0.0, 0.0, 0.0, 0.0, 0.0, 0.0, 0.0, 1.6961089925357037E9, 0.0, 2023-09-30 16:23:12.535
81.0, 154202.6956919069, 143811.3473428902, -161640.59628732162, -162237.20905032268, 156399.3580817411, -165928.28672269426, 127889.0374766633, -51886.93724714962, -0.06, 0.98, -0.1, 192.0, 0.0, 0.0, 0.0, 0.0, 0.0, 0.0, 0.0, 0.0, 0.0, 1.6961089925357146E9, 0.0, 2023-09-30 16:23:12.535
82.0, 154360.8342839282, 143761.6370632216, -161663.2609561993, -162146.1703951562, 156399.84982011913, -165960.74145564335, 127758.39153032203, -51988.794146632456, -0.06, 0.98, -0.1, 192.0, 0.0, 0.0, 0.0, 0.0, 0.0, 0.0, 0.0, 0.0, 0.0, 1.6961089925357256E9, 0.0, 2023-09-30 16:23:12.535
83.0, 153947.61758418294, 142911.4214076306, -161670.39116268055, -162083.47375195907, 156395.7594508838, -165696.14150478144, 127743.28175107024, -52100.97755205364, -0.06, 0.98, -0.1, 192.0, 0.0, 0.0, 0.0, 0.0, 0.0, 0.0, 0.0, 0.0, 0.0, 1.696108992535852E9, 0.0, 2023-09-30 16:23:12.535
84.0, 153567.01207959797, 142415.8161778231, -161648.28528741424, -162082.17735078066, 156389.6574246475, -165634.47304182925, 127716.37025074605, -52378.89914261093, -0.06, 0.98, -0.1, 192.0, 0.0, 0.0, 0.0, 0.0, 0.0, 0.0, 0.0, 0.0, 0.0, 1.696108992535863E9, 0.0, 2023-09-30 16:23:12.535
85.0, 153818.91623960927, 143277.565333553, -161628.07931042663, -162172.4336948912, 156390.28327349227, -166034.25634315686, 127543.50185912871, -52736.86233006267, -0.06, 0.98, -0.1, 192.0, 0.0, 0.0, 0.0, 0.0, 0.0, 0.0, 0.0, 0.0, 0.0, 1.696108992535874E9, 0.0, 2023-09-30 16:23:12.535
86.0, 154098.38010053398, 143537.35965935705, -161656.06369448468, -162139.28605786397, 156393.1219450381, -166164.5670133313, 127395.6227178124, -52887.17781152461, -0.06, 0.98, -0.1, 192.0, 0.0, 0.0, 0.0, 0.0, 0.0, 0.0, 0.0, 0.0, 0.0, 1.6961089925358844E9, 0.0, 2023-09-30 16:23:12.535
87.0, 153714.6229999808, 142678.85150657315, -161664.49030214435, -162042.32419041684, 156386.63993914606, -165879.0458296592, 127375.68496175826, -52979.8034405474, -0.06, 0.98, -0.1, 192.0, 0.0, 0.0, 0.0, 0.0, 0.0, 0.0, 0.0, 0.0, 0.0, 1.6961089925358956E9, 0.0, 2023-09-30 16:23:12.535
88.0, 153332.05054188377, 142137.33579365443, -161658.0082962523, -162038.27852467043, 156380.89554082105, -165739.79446170267, 127391.28647938806, -53228.421894123785, -0.054, 1.004, -0.126, 192.0, 254.0, 80.0, 31.0, 96.0, 252.0, 16.0, 0.0, 0.0, 0.0, 1.6961089925359073E9, 0.0, 2023-09-30 16:23:12.535
89.0, 153584.4464402731, 142913.1201402092, -161637.42233960895, -162086.22301652707, 156381.7672588548, -166030.00951171035, 127305.00874579058, -53549.392944502, -0.054, 1.004, -0.126, 192.0, 0.0, 0.0, 0.0, 0.0, 0.0, 0.0, 0.0, 0.0, 0.0, 1.6961089925359204E9, 0.0, 2023-09-30 16:23:12.535
90.0, 154081.59394044805, 143589.50627917127, -161661.24929919833, -162092.32504276338, 156391.19969501492, -166246.93319164912, 127192.57947118039, -53709.54319352427, -0.054, 1.004, -0.126, 192.0, 0.0, 0.0, 0.0, 0.0, 0.0, 0.0, 0.0, 0.0, 0.0, 1.696108992535943E9, 0.0, 2023-09-30 16:23:12.535
91.0, 153815.09409130743, 142809.38569419214, -161676.3590784501, -161957.14169229768, 156392.3172822377, -165951.55488867222, 127198.48033171658, -53745.37303988612, -0.054, 1.004, -0.126, 192.0, 0.0, 0.0, 0.0, 0.0, 0.0, 0.0, 0.0, 0.0, 0.0, 1.6961089925359657E9, 0.0, 2023-09-30 16:23:12.535
92.0, 153408.24763873193, 142175.62433190638, -161669.31827894668, -161918.45082264554, 156385.38824145656, -165753.4737293093, 127243.29557934948, -53940.54847246987, -0.054, 1.004, -0.126, 192.0, 0.0, 0.0, 0.0, 0.0, 0.0, 0.0, 0.0, 0.0, 0.0, 1.6961089925359795E9, 0.0, 2023-09-30 16:23:12.535
93.0, 153516.65359934018, 142673.88941930406, -161656.89070902954, -162018.89956222769, 156386.4611251904, -165939.28378096627, 127204.51530271952, -54207.54005998851, -0.054, 1.004, -0.126, 192.0, 0.0, 0.0, 0.0, 0.0, 0.0, 0.0, 0.0, 0.0, 0.0, 1.6961089925359917E9, 0.0, 2023-09-30 16:23:12.535
94.0, 154114.9203914309, 143624.9561458774, -161665.42907541146, -162049.67791434264, 156395.98296832838, -166229.45412748508, 127105.13944687122, -54353.65341349285, -0.054, 1.004, -0.126, 192.0, 0.0, 0.0, 0.0, 0.0, 0.0, 0.0, 0.0, 0.0, 0.0, 1.696108992536003E9, 0.0, 2023-09-30 16:23:12.536
95.0, 153953.98783135272, 142996.4474435386, -161682.34934596412, -161891.09228743223, 156398.03932881824, -165950.90668808302, 127117.11998189926, -54335.36968652841, -0.054, 1.004, -0.126, 192.0, 0.0, 0.0, 0.0, 0.0, 0.0, 0.0, 0.0, 0.0, 0.0, 1.6961089925360332E9, 0.0, 2023-09-30 16:23:12.536
96.0, 153572.82353315636, 142340.75901994217, -161682.9528430644, -161787.53665537082, 156394.6195119166, -165692.1628942684, 127189.53963393446, -54475.313958563085, -0.054, 1.004, -0.126, 192.0, 0.0, 0.0, 0.0, 0.0, 0.0, 0.0, 0.0, 0.0, 0.0, 1.6961089925360465E9, 0.0, 2023-09-30 16:23:12.536
97.0, 153574.9022453907, 142609.3599330616, -161677.07433427268, -161896.1214299347, 156395.7594508838, -165756.46886306631, 127206.10227657584, -54731.97904014338, -0.054, 1.004, -0.126, 192.0, 0.0, 0.0, 0.0, 0.0, 0.0, 0.0, 0.0, 0.0, 0.0, 1.696108992536072E9, 0.0, 2023-09-30 16:23:12.536
98.0, 154236.04449463423, 143798.3386276172, -161676.3590784501, -162015.6362075372, 156407.3153027672, -166078.0434105448, 127133.21323790708, -54939.33617345526, -0.052000000000000005, 1.02, -0.134, 192.0, 254.0, 96.0, 31.0, 224.0, 251.0, 208.0, 0.0, 0.0, 0.0, 1.6961089925361419E9, 0.0, 2023-09-30 16:23:12.536
99.0, 154236.11154986758, 143390.21812560776, -161700.00722408382, -161853.38489453614, 156414.57961971516, -165834.16352679295, 127157.15195621872, -54939.78320834437, -0.052000000000000005, 1.02, -0.134, 192.0, 0.0, 0.0, 0.0, 0.0, 0.0, 0.0, 0.0, 0.0, 0.0, 1.6961089925361564E9, 0.0, 2023-09-30 16:23:12.536
100.0, 153874.41562109182, 142708.15464355407, -161705.23753228635, -161700.3648519951, 156411.9644656139, -165513.55010432604, 127253.4879748211, -55058.40391616868, -0.052000000000000005, 1.02, -0.134, 192.0, 0.0, 0.0, 0.0, 0.0, 0.0, 0.0, 0.0, 0.0, 0.0, 1.696108992536169E9, 0.0, 2023-09-30 16:23:12.536
101.0, 153794.48578291963, 142741.3916875591, -161701.8624188736, -161779.60178608916, 156410.33278826866, -165472.311135806, 127313.16713251677, -55309.72693082416, -0.052000000000000005, 1.02, -0.134, 192.0, 0.0, 0.0, 0.0, 0.0, 0.0, 0.0, 0.0, 0.0, 0.0, 1.6961089925361817E9, 0.0, 2023-09-30 16:23:12.536
102.0, 154476.28104403988, 144024.02419138243, -161705.08107007516, -162047.57685036384, 156421.59806747414, -165789.7282588158, 127277.18082394372, -55540.68750628085, -0.052000000000000005, 1.02, -0.134, 192.0, 0.0, 0.0, 0.0, 0.0, 0.0, 0.0, 0.0, 0.0, 0.0, 1.6961089925361943E9, 0.0, 2023-09-30 16:23:12.536
103.0, 154729.63806744077, 143931.26445189293, -161695.2686542593, -161855.88828991514, 156429.77880594478, -165601.21364607973, 127323.22541752165, -55534.719590511275, -0.052000000000000005, 1.02, -0.134, 192.0, 0.0, 0.0, 0.0, 0.0, 0.0, 0.0, 0.0, 0.0, 0.0, 1.6961089925362072E9, 0.0, 2023-09-30 16:23:12.536
104.0, 154473.48707598294, 143289.05413020303, -161653.69440957243, -161603.2465223368, 156430.27054432282, -165216.09308911482, 127466.6342099469, -55594.95754181833, -0.052000000000000005, 1.02, -0.134, 192.0, 0.0, 0.0, 0.0, 0.0, 0.0, 0.0, 0.0, 0.0, 0.0, 1.6961089925362194E9, 0.0, 2023-09-30 16:23:12.536
105.0, 154350.39601926756, 143176.26722768156, -161624.5030313138, -161600.81018219117, 156431.5222420123, -165067.09636057573, 127595.2684992872, -55813.736416546875, -0.052000000000000005, 1.02, -0.134, 192.0, 0.0, 0.0, 0.0, 0.0, 0.0, 0.0, 0.0, 0.0, 0.0, 1.6961089925362313E9, 0.0, 2023-09-30 16:23:12.536
106.0, 155016.8803354359, 144448.03678369962, -161634.3601506186, -161859.24105158343, 156444.50860554085, -165341.19580283115, 127614.55805475212, -56063.69597479057, -0.052000000000000005, 1.02, -0.134, 192.0, 0.0, 0.0, 0.0, 0.0, 0.0, 0.0, 0.0, 0.0, 0.0, 1.6961089925362432E9, 0.0, 2023-09-30 16:23:12.536
107.0, 155467.69266935502, 144679.06441438966, -161629.93450521643, -161745.0236374168, 156458.1878731475, -165249.3077813754, 127665.56473559914, -56099.10113800778, -0.052000000000000005, 1.02, -0.134, 192.0, 0.0, 0.0, 0.0, 0.0, 0.0, 0.0, 0.0, 0.0, 0.0, 1.6961089925362558E9, 0.0, 2023-09-30 16:23:12.536
108.0, 155178.10346819204, 143931.0185827039, -161602.4865630253, -161460.32946828956, 156461.11595167112, -164855.98413419534, 127790.35452489312, -56152.83473167834, -0.052000000000000005, 1.02, -0.134, 192.0, 0.0, 0.0, 0.0, 0.0, 0.0, 0.0, 0.0, 0.0, 0.0, 1.6961089925362675E9, 0.0, 2023-09-30 16:23:12.536
109.0, 154922.33245638997, 143592.16613676146, -161582.12412382654, -161416.38593869042, 156460.71362027092, -164657.90297483242, 127919.7934770338, -56370.697184884215, -0.054, 1.016, -0.124, 192.0, 254.0, 80.0, 31.0, 192.0, 252.0, 32.0, 0.0, 0.0, 0.0, 1.6961089925362797E9, 0.0, 2023-09-30 16:23:12.536
110.0, 155419.65877052056, 144681.00901615727, -161583.66639419395, -161648.62056358106, 156469.49785584188, -164887.25422468834, 127954.97512280646, -56632.25729850022, -0.054, 1.016, -0.124, 192.0, 0.0, 0.0, 0.0, 0.0, 0.0, 0.0, 0.0, 0.0, 0.0, 1.6961089925362923E9, 0.0, 2023-09-30 16:23:12.536
111.0, 156032.4765482517, 145281.4886309491, -161591.53420824223, -161632.48260408433, 156480.24904492486, -164916.7361756249, 127989.86619590118, -56706.46509009184, -0.054, 1.016, -0.124, 192.0, 0.0, 0.0, 0.0, 0.0, 0.0, 0.0, 0.0, 0.0, 0.0, 1.6961089925363045E9, 0.0, 2023-09-30 16:23:12.536
112.0, 155879.92589234424, 144602.1297099745, -161553.133911268, -161314.01494908513, 156484.65233858256, -164516.66230161933, 128125.60833997827, -56713.72940703981, -0.054, 1.016, -0.124, 192.0, 0.0, 0.0, 0.0, 0.0, 0.0, 0.0, 0.0, 0.0, 0.0, 1.6961089925363164E9, 0.0, 2023-09-30 16:23:12.536
113.0, 155672.1440758877, 144239.6961736317, -161508.96686422432, -161250.49129134315, 156482.8865507706, -164252.30821994643, 128300.13076068531, -56867.889388548065, -0.054, 1.016, -0.124, 192.0, 0.0, 0.0, 0.0, 0.0, 0.0, 0.0, 0.0, 0.0, 0.0, 1.6961089925363576E9, 0.0, 2023-09-30 16:23:12.536
114.0, 155947.71873327717, 145130.4131901757, -161500.38379435346, -161426.86890683995, 156490.17321946303, -164403.2048467642, 128384.86622391538, -57097.71002503754, -0.054, 1.016, -0.124, 192.0, 0.0, 0.0, 0.0, 0.0, 0.0, 0.0, 0.0, 0.0, 0.0, 1.696108992536383E9, 0.0, 2023-09-30 16:23:12.536
115.0, 156371.77602908327, 146075.735518424, -161523.38373939798, -161508.18455316836, 156505.2382952259, -164534.29782799457, 128431.13433493786, -57184.79242143541, -0.054, 1.016, -0.124, 192.0, 0.0, 0.0, 0.0, 0.0, 0.0, 0.0, 0.0, 0.0, 0.0, 1.6961089925364068E9, 0.0, 2023-09-30 16:23:12.536
116.0, 156419.0723203507, 145501.54155511162, -161534.60431511456, -161402.3490431725, 156512.1896877515, -164136.45912843457, 128590.07758975954, -57135.506824911456, -0.054, 1.016, -0.124, 192.0, 0.0, 0.0, 0.0, 0.0, 0.0, 0.0, 0.0, 0.0, 0.0, 1.6961089925364385E9, 0.0, 2023-09-30 16:23:12.536
117.0, 156415.36193077112, 145054.77488693892, -161534.76077732575, -161393.587159346, 156516.01183605337, -163829.8155462522, 128793.5008160473, -57248.91957627769, -0.054, 1.016, -0.124, 192.0, 0.0, 0.0, 0.0, 0.0, 0.0, 0.0, 0.0, 0.0, 0.0, 1.696108992536476E9, 0.0, 2023-09-30 16:23:12.536
118.0, 156421.91099189653, 145668.39732747048, -161539.1193674945, -161418.5093544137, 156521.42095821156, -163897.85425637415, 128917.10596288515, -57466.603215527924, -0.054, 1.016, -0.124, 192.0, 0.0, 0.0, 0.0, 0.0, 0.0, 0.0, 0.0, 0.0, 0.0, 1.6961089925365036E9, 0.0, 2023-09-30 16:23:12.536
119.0, 156446.25204160836, 146876.28559783526, -161558.9900683153, -161565.87440560752, 156534.80965314028, -164121.50581139396, 128964.37990240812, -57600.132536903926, -0.06, 1.01, -0.112, 192.0, 254.0, 32.0, 31.0, 144.0, 252.0, 128.0, 0.0, 0.0, 0.0, 1.696108992536533E9, 0.0, 2023-09-30 16:23:12.536
120.0, 156454.00809693435, 146406.78720555155, -161556.3302107251, -161418.97874104723, 156541.962211366, -163789.7612201883, 129098.46801739551, -57563.207455063755, -0.06, 1.01, -0.112, 192.0, 0.0, 0.0, 0.0, 0.0, 0.0, 0.0, 0.0, 0.0, 0.0, 1.6961089925365555E9, 0.0, 2023-09-30 16:23:12.536
121.0, 156451.95173644446, 145847.16657962403, -161549.1776524994, -161362.7417519977, 156540.77756890983, -163484.27992871762, 129272.40929274671, -57688.980721113774, -0.06, 1.01, -0.112, 192.0, 0.0, 0.0, 0.0, 0.0, 0.0, 0.0, 0.0, 0.0, 0.0, 1.6961089925365822E9, 0.0, 2023-09-30 16:23:12.536
122.0, 156454.25396612336, 146134.65471680817, -161557.894832837, -161403.37722341742, 156543.23626079992, -163510.85615287497, 129373.01449454004, -57951.2784422968, -0.06, 1.01, -0.112, 192.0, 0.0, 0.0, 0.0, 0.0, 0.0, 0.0, 0.0, 0.0, 0.0, 1.6961089925366054E9, 0.0, 2023-09-30 16:23:12.536
123.0, 156471.2859953983, 147433.8498632729, -161609.3485485731, -161637.24352565332, 156558.457798774, -163821.0089589368, 129382.9386690782, -58164.849360567256, -0.06, 1.01, -0.112, 192.0, 0.0, 0.0, 0.0, 0.0, 0.0, 0.0, 0.0, 0.0, 0.0, 1.6961089925366373E9, 0.0, 2023-09-30 16:23:12.536
124.0, 156480.22669318042, 147146.92051970013, -161615.22705736483, -161476.7132969753, 156567.01851690037, -163583.67813631037, 129479.09587372493, -58158.501465141955, -0.06, 1.01, -0.112, 192.0, 0.0, 0.0, 0.0, 0.0, 0.0, 0.0, 0.0, 0.0, 0.0, 1.6961089925366895E9, 0.0, 2023-09-30 16:23:12.536
125.0, 156475.37636463362, 146489.91334318081, -161595.9375018999, -161354.62806876042, 156562.7046302205, -163252.4252834827, 129644.49878269421, -58259.28548089093, -0.06, 1.01, -0.112, 192.0, 0.0, 0.0, 0.0, 0.0, 0.0, 0.0, 0.0, 0.0, 0.0, 1.6961089925367424E9, 0.0, 2023-09-30 16:23:12.536
126.0, 156476.56100708974, 146496.59651477297, -161592.5847402316, -161395.86703728046, 156564.26925233236, -163205.3301579154, 129767.61219115404, -58504.79704198802, -0.06, 1.01, -0.112, 192.0, 0.0, 0.0, 0.0, 0.0, 0.0, 0.0, 0.0, 0.0, 0.0, 1.696108992536801E9, 0.0, 2023-09-30 16:23:12.536
127.0, 156491.58137936372, 147655.02037465817, -161638.8081477652, -161652.88974677204, 156578.3061478503, -163553.72679874024, 129769.60149641056, -58759.20459737833, -0.06, 1.01, -0.112, 192.0, 0.0, 0.0, 0.0, 0.0, 0.0, 0.0, 0.0, 0.0, 0.0, 1.6961089925368235E9, 0.0, 2023-09-30 16:23:12.536
128.0, 156497.92927478903, 147671.18068589934, -161658.99177300834, -161529.10578597855, 156584.0058426864, -163443.59975380896, 129824.47502904834, -58789.714728559826, -0.06, 1.01, -0.112, 192.0, 0.0, 0.0, 0.0, 0.0, 0.0, 0.0, 0.0, 0.0, 0.0, 1.6961089925368516E9, 0.0, 2023-09-30 16:23:12.536
0.0, 0.0, 0.0, 0.0, 0.0, 0.0, 0.0, 0.0, 0.0, -0.096, 0.99, -0.11, 192.0, 253.0, 0.0, 30.0, 240.0, 252.0, 144.0, 0.0, 0.0, 0.0, 1.6961089925841136E9, 0.0, 2023-09-30 16:23:12.584
1.0, 22245.26074472198, 13066.695698105777, -187500.02235174447, -125476.613697602, 29110.487295447267, -157647.68065782555, -2397.0010753871293, -2947.5245413213424, -0.096, 0.99, -0.11, 192.0, 0.0, 0.0, 0.0, 0.0, 0.0, 0.0, 0.0, 0.0, 0.0, 1.6961089930709913E9, 0.0, 2023-09-30 16:23:13.070
2.0, 22279.660079438698, 13037.325505891504, -187500.02235174447, -125095.58350987239, 29274.929079404963, -157350.2906978477, -2180.278561148472, -2644.2784242961916, -0.096, 0.99, -0.11, 192.0, 0.0, 0.0, 0.0, 0.0, 0.0, 0.0, 0.0, 0.0, 0.0, 1.69610899307108E9, 0.0, 2023-09-30 16:23:13.071
3.0, 22231.78264281543, 13010.458709056224, -187500.02235174447, -124976.33695320332, 29348.28750470728, -157291.05857504113, -2068.3410249162944, -2556.5701790535663, -0.096, 0.99, -0.11, 192.0, 0.0, 0.0, 0.0, 0.0, 0.0, 0.0, 0.0, 0.0, 0.0, 1.6961089930711117E9, 0.0, 2023-09-30 16:23:13.071
4.0, 22150.981086609496, 13050.445979886768, -187500.02235174447, -125781.3350297612, 29134.20249631435, -158152.71832379323, -2358.6454819018227, -3177.1887155996224, -0.096, 0.99, -0.11, 192.0, 0.0, 0.0, 0.0, 0.0, 0.0, 0.0, 0.0, 0.0, 0.0, 1.6961089930711365E9, 0.0, 2023-09-30 16:23:13.071
5.0, 22224.183049700627, 13060.370154424925, -187500.02235174447, -126137.86770556781, 29061.60403032351, -158610.41499500454, -2483.7034921292657, -3426.991811632134, -0.096, 0.99, -0.11, 192.0, 0.0, 0.0, 0.0, 0.0, 0.0, 0.0, 0.0, 0.0, 0.0, 1.6961089930711594E9, 0.0, 2023-09-30 16:23:13.071
6.0, 22271.50169271251, 13033.86098550093, -187500.02235174447, -125757.79864284977, 29208.298529183692, -158311.88509605947, -2289.556239790468, -3105.1713949646232, -0.096, 0.99, -0.11, 192.0, 0.0, 0.0, 0.0, 0.0, 0.0, 0.0, 0.0, 0.0, 0.0, 1.6961089930711775E9, 0.0, 2023-09-30 16:23:13.071
7.0, 22259.11882628427, 13016.940714948263, -187500.02235174447, -125430.14442087943, 29343.05719650474, -158037.293915426, -2095.9454293185986, -2830.7143247979075, -0.096, 0.99, -0.11, 192.0, 0.0, 0.0, 0.0, 0.0, 0.0, 0.0, 0.0, 0.0, 0.0, 1.696108993071196E9, 0.0, 2023-09-30 16:23:13.071
8.0, 22167.968412395527, 13046.467369373724, -187500.02235174447, -126100.00385046052, 29158.521194281722, -158740.7703686679, -2336.4501996577023, -3339.395325111786, -0.11, 0.98, -0.11, 192.0, 252.0, 144.0, 30.0, 160.0, 252.0, 144.0, 0.0, 0.0, 0.0, 1.6961089930712235E9, 0.0, 2023-09-30 16:23:13.071
9.0, 22229.50276488099, 13068.461485917745, -187500.02235174447, -126540.24380925225, 29068.60012633802, -159251.97711610523, -2484.7093206297545, -3639.4227909353726, -0.11, 0.98, -0.11, 192.0, 0.0, 0.0, 0.0, 0.0, 0.0, 0.0, 0.0, 0.0, 0.0, 1.6961089930712395E9, 0.0, 2023-09-30 16:23:13.071
10.0, 22299.97781514857, 13039.24775591466, -187500.02235174447, -126141.08635676937, 29236.886410342027, -158907.29086485994, -2265.483411012103, -3285.997007608057, -0.11, 0.98, -0.11, 192.0, 0.0, 0.0, 0.0, 0.0, 0.0, 0.0, 0.0, 0.0, 0.0, 1.6961089930712576E9, 0.0, 2023-09-30 16:23:13.071
11.0, 22280.285928283447, 13030.463520343725, -187500.02235174447, -125713.2739678948, 29360.402150202055, -158500.0644326287, -2063.356585902761, -2940.953128451482, -0.11, 0.98, -0.11, 192.0, 0.0, 0.0, 0.0, 0.0, 0.0, 0.0, 0.0, 0.0, 0.0, 1.696108993071277E9, 0.0, 2023-09-30 16:23:13.071
12.0, 22203.127706423726, 13020.919325461307, -187500.02235174447, -126140.25934222453, 29243.860154612084, -158913.2587806295, -2193.57784909938, -3254.6598618817166, -0.11, 0.98, -0.11, 192.0, 0.0, 0.0, 0.0, 0.0, 0.0, 0.0, 0.0, 0.0, 0.0, 1.6961089930713086E9, 0.0, 2023-09-30 16:23:13.071
13.0, 22247.898250567705, 13040.857081515442, -187500.02235174447, -126573.03381836819, 29159.2811535932, -159370.77663788517, -2320.9827924946303, -3540.9857083542, -0.11, 0.98, -0.11, 192.0, 0.0, 0.0, 0.0, 0.0, 0.0, 0.0, 0.0, 0.0, 0.0, 1.6961089930713215E9, 0.0, 2023-09-30 16:23:13.071
14.0, 22318.79798397994, 13026.48490983068, -187500.02235174447, -126209.81797096944, 29294.93389069246, -159034.22642162163, -2136.826769927355, -3221.623983576773, -0.11, 0.98, -0.11, 192.0, 0.0, 0.0, 0.0, 0.0, 0.0, 0.0, 0.0, 0.0, 0.0, 1.6961089930713365E9, 0.0, 2023-09-30 16:23:13.071
15.0, 22320.74258574755, 12978.719231929688, -187500.02235174447, -125577.06243718415, 29498.558282680307, -158396.8440767341, -1830.5408156562826, -2706.4386256264, -0.11, 0.98, -0.11, 192.0, 0.0, 0.0, 0.0, 0.0, 0.0, 0.0, 0.0, 0.0, 0.0, 1.6961089930713525E9, 0.0, 2023-09-30 16:23:13.071
16.0, 22235.91771553966, 12957.954461330708, -187500.02235174447, -125724.91922675601, 29471.602078867207, -158511.97791242338, -1836.4416761924836, -2812.6764670224748, -0.11, 0.98, -0.11, 192.0, 0.0, 0.0, 0.0, 0.0, 0.0, 0.0, 0.0, 0.0, 0.0, 1.6961089930713673E9, 0.0, 2023-09-30 16:23:13.071
17.0, 22235.31421843937, 13008.871735199898, -187500.02235174447, -126274.07923627846, 29336.91046677953, -159060.7802940345, -2026.5209110404148, -3218.561794586396, -0.11, 0.98, -0.11, 192.0, 0.0, 0.0, 0.0, 0.0, 0.0, 0.0, 0.0, 0.0, 0.0, 1.6961089930713887E9, 0.0, 2023-09-30 16:23:13.071
18.0, 22319.535591546966, 13010.950447434241, -187500.02235174447, -126033.70857640608, 29447.86452625567, -158843.56604141786, -1888.3200750732512, -3011.539937441342, -0.11800000000000001, 0.972, -0.106, 192.0, 252.0, 80.0, 30.0, 96.0, 252.0, 176.0, 0.0, 0.0, 0.0, 1.6961089930714128E9, 0.0, 2023-09-30 16:23:13.071
19.0, 22322.955408448626, 12981.200275564228, -187500.02235174447, -125435.06180465959, 29631.57351393384, -158242.57233650357, -1614.3547432845526, -2549.5964347835106, -0.11800000000000001, 0.972, -0.106, 192.0, 0.0, 0.0, 0.0, 0.0, 0.0, 0.0, 0.0, 0.0, 0.0, 1.6961089930714319E9, 0.0, 2023-09-30 16:23:13.071
20.0, 22245.663076122175, 12959.116752042384, -187500.02235174447, -125480.21232845931, 29612.798048591383, -158256.13984538792, -1603.0894640790777, -2607.778025600675, -0.11800000000000001, 0.972, -0.106, 192.0, 0.0, 0.0, 0.0, 0.0, 0.0, 0.0, 0.0, 0.0, 0.0, 1.6961089930714517E9, 0.0, 2023-09-30 16:23:13.071
21.0, 22225.524154367944, 12977.959272618207, -187500.02235174447, -126103.08839119536, 29453.4524623695, -158865.87308238426, -1819.297888195263, -3081.433842353087, -0.11800000000000001, 0.972, -0.106, 192.0, 0.0, 0.0, 0.0, 0.0, 0.0, 0.0, 0.0, 0.0, 0.0, 1.6961089930714698E9, 0.0, 2023-09-30 16:23:13.071
22.0, 22305.096364628836, 12987.078784355974, -187500.02235174447, -126001.47736090152, 29516.394974755643, -158786.1667616566, -1744.1513233365208, -2986.2824662068447, -0.11800000000000001, 0.972, -0.106, 192.0, 0.0, 0.0, 0.0, 0.0, 0.0, 0.0, 0.0, 0.0, 0.0, 1.6961089930714884E9, 0.0, 2023-09-30 16:23:13.071
23.0, 22329.973856207595, 12964.123542800373, -187500.02235174447, -125414.83347592753, 29697.488808332542, -158197.98060631522, -1472.9129043713695, -2535.35837356548, -0.11800000000000001, 0.972, -0.106, 192.0, 0.0, 0.0, 0.0, 0.0, 0.0, 0.0, 0.0, 0.0, 0.0, 1.6961089930715065E9, 0.0, 2023-09-30 16:23:13.071
24.0, 22273.93803285814, 12968.683298669255, -187500.02235174447, -125316.30698636854, 29707.949424737624, -158071.46973269817, -1417.7935025445822, -2495.773434135131, -0.11800000000000001, 0.972, -0.106, 192.0, 0.0, 0.0, 0.0, 0.0, 0.0, 0.0, 0.0, 0.0, 0.0, 1.6961089930715272E9, 0.0, 2023-09-30 16:23:13.071
25.0, 22239.06931150786, 12993.76195594811, -187500.02235174447, -125994.12363697572, 29520.46299224651, -158726.8228801278, -1667.9318747439236, -3035.5457109863414, -0.11800000000000001, 0.972, -0.106, 192.0, 0.0, 0.0, 0.0, 0.0, 0.0, 0.0, 0.0, 0.0, 0.0, 1.6961089930715468E9, 0.0, 2023-09-30 16:23:13.071
26.0, 22330.823222496896, 12997.695862972245, -187500.02235174447, -126081.69777175163, 29527.526143494386, -158842.3366954728, -1681.5887906061162, -3105.9984095094696, -0.11800000000000001, 0.972, -0.106, 192.0, 0.0, 0.0, 0.0, 0.0, 0.0, 0.0, 0.0, 0.0, 0.0, 1.6961089930715673E9, 0.0, 2023-09-30 16:23:13.071
27.0, 22375.414952685234, 12980.306205786015, -187500.02235174447, -125546.55230600266, 29715.951349252624, -158319.127061263, -1425.4377991482972, -2702.0129802242495, -0.11800000000000001, 0.972, -0.106, 192.0, 0.0, 0.0, 0.0, 0.0, 0.0, 0.0, 0.0, 0.0, 0.0, 1.6961089930715873E9, 0.0, 2023-09-30 16:23:13.071
28.0, 22332.164327164213, 12986.47528725568, -187500.02235174447, -125290.44601803375, 29793.891882168282, -158051.5096248996, -1293.2495824396112, -2542.689745746821, -0.11, 0.972, -0.10200000000000001, 192.0, 252.0, 144.0, 30.0, 96.0, 252.0, 208.0, 0.0, 0.0, 0.0, 1.6961089930716105E9, 0.0, 2023-09-30 16:23:13.071
29.0, 22259.99054431803, 13014.012636424619, -187500.02235174447, -125957.3326656023, 29601.979804275015, -158696.96094953548, -1542.5832918385615, -3091.2239064245114, -0.11, 0.972, -0.10200000000000001, 192.0, 0.0, 0.0, 0.0, 0.0, 0.0, 0.0, 0.0, 0.0, 0.0, 1.696108993071633E9, 0.0, 2023-09-30 16:23:13.071
30.0, 22338.66868480071, 13041.81820652702, -187500.02235174447, -126245.71487256467, 29544.669931491608, -159012.4781742666, -1643.0096796762562, -3322.519758048029, -0.11, 0.972, -0.10200000000000001, 192.0, 0.0, 0.0, 0.0, 0.0, 0.0, 0.0, 0.0, 0.0, 0.0, 1.696108993071659E9, 0.0, 2023-09-30 16:23:13.071
31.0, 22391.99994707107, 13006.882429943375, -187500.02235174447, -125826.66436751657, 29698.62874729976, -158605.11763156863, -1432.3891916738978, -3009.014190317892, -0.11, 0.972, -0.10200000000000001, 192.0, 0.0, 0.0, 0.0, 0.0, 0.0, 0.0, 0.0, 0.0, 0.0, 1.6961089930716796E9, 0.0, 2023-09-30 16:23:13.071
32.0, 22359.724028077606, 12988.151668089828, -187500.02235174447, -125516.84683762156, 29787.85691116535, -158283.85600851252, -1280.8443642669158, -2810.1283681545697, -0.11, 0.972, -0.10200000000000001, 192.0, 0.0, 0.0, 0.0, 0.0, 0.0, 0.0, 0.0, 0.0, 0.0, 1.6961089930717027E9, 0.0, 2023-09-30 16:23:13.071
33.0, 22278.095457326825, 13017.186584137271, -187500.02235174447, -126155.5255836875, 29605.645490365685, -158893.67865248665, -1511.1343873899445, -3343.8656740028473, -0.11, 0.972, -0.10200000000000001, 192.0, 0.0, 0.0, 0.0, 0.0, 0.0, 0.0, 0.0, 0.0, 0.0, 1.696108993071722E9, 0.0, 2023-09-30 16:23:13.071
34.0, 22330.64440854125, 13038.823072770008, -187500.02235174447, -126630.41074638495, 29506.850779873228, -159389.03801310516, -1667.3507293880857, -3716.8045302396454, -0.11, 0.972, -0.10200000000000001, 192.0, 0.0, 0.0, 0.0, 0.0, 0.0, 0.0, 0.0, 0.0, 0.0, 1.6961089930717378E9, 0.0, 2023-09-30 16:23:13.071
35.0, 22379.99706029857, 13000.646293240345, -187500.02235174447, -126347.08003366948, 29624.711528386062, -159124.97450411017, -1511.4249600678636, -3506.4299114262953, -0.11, 0.972, -0.10200000000000001, 192.0, 0.0, 0.0, 0.0, 0.0, 0.0, 0.0, 0.0, 0.0, 0.0, 1.6961089930717735E9, 0.0, 2023-09-30 16:23:13.071
36.0, 22363.52382463501, 12968.57153994698, -187500.02235174447, -125974.27528789942, 29744.047492032947, -158749.73341819446, -1324.3632107213987, -3244.5792251323733, -0.11, 0.972, -0.10200000000000001, 192.0, 0.0, 0.0, 0.0, 0.0, 0.0, 0.0, 0.0, 0.0, 0.0, 1.69610899307182E9, 0.0, 2023-09-30 16:23:13.071
37.0, 22276.821407892872, 12981.692013942244, -187500.02235174447, -126483.20215740231, 29610.29465321239, -159233.7827961186, -1488.4920702567185, -3673.7103669298135, -0.11, 0.972, -0.10200000000000001, 192.0, 0.0, 0.0, 0.0, 0.0, 0.0, 0.0, 0.0, 0.0, 0.0, 1.6961089930718527E9, 0.0, 2023-09-30 16:23:13.071
38.0, 22293.115829600792, 13016.113700403417, -187500.02235174447, -127150.20056369313, 29442.947142475507, -159919.6013712408, -1732.1707883084762, -4204.899573910186, -0.11, 0.972, -0.10200000000000001, 192.0, 0.0, 0.0, 0.0, 0.0, 0.0, 0.0, 0.0, 0.0, 0.0, 1.6961089930718749E9, 0.0, 2023-09-30 16:23:13.071
39.0, 22360.03695249998, 12997.271179827594, -187500.02235174447, -127025.00844299895, 29514.5174282214, -159829.970875975, -1646.5859587891055, -4122.980430481485, -0.108, 0.97, -0.1, 192.0, 252.0, 160.0, 30.0, 80.0, 252.0, 224.0, 0.0, 0.0, 0.0, 1.6961089930718963E9, 0.0, 2023-09-30 16:23:13.071
40.0, 22377.80658934195, 12950.444275193726, -187500.02235174447, -126585.90842317443, 29686.31293610489, -159403.79016444567, -1403.6224965599176, -3796.913182367466, -0.108, 0.97, -0.1, 192.0, 0.0, 0.0, 0.0, 0.0, 0.0, 0.0, 0.0, 0.0, 0.0, 1.6961089930719166E9, 0.0, 2023-09-30 16:23:13.071
41.0, 22299.88840817075, 12957.216853763683, -187500.02235174447, -126950.84535489624, 29592.793237303882, -159755.1595872831, -1507.7592739771933, -4113.816215254809, -0.108, 0.97, -0.1, 192.0, 0.0, 0.0, 0.0, 0.0, 0.0, 0.0, 0.0, 0.0, 0.0, 1.6961089930719364E9, 0.0, 2023-09-30 16:23:13.071
42.0, 22290.634785966253, 13013.677360257789, -187500.02235174447, -127771.22143163938, 29372.47209220792, -160589.2596351218, -1818.9179085395228, -4764.631958559985, -0.108, 0.97, -0.1, 192.0, 0.0, 0.0, 0.0, 0.0, 0.0, 0.0, 0.0, 0.0, 0.0, 1.696108993071971E9, 0.0, 2023-09-30 16:23:13.071
43.0, 22368.865891559828, 12996.399461793837, -187500.02235174447, -127753.98823666433, 29435.436956338523, -160612.84072552214, -1758.9705299103894, -4753.053754932136, -0.108, 0.97, -0.1, 192.0, 0.0, 0.0, 0.0, 0.0, 0.0, 0.0, 0.0, 0.0, 0.0, 1.696108993071986E9, 0.0, 2023-09-30 16:23:13.071
44.0, 22382.72397312212, 12967.073973068473, -187500.02235174447, -127313.90474008379, 29612.976862547024, -160190.23629310564, -1514.5989077805173, -4428.752294630086, -0.108, 0.97, -0.1, 192.0, 0.0, 0.0, 0.0, 0.0, 0.0, 0.0, 0.0, 0.0, 0.0, 1.6961089930720043E9, 0.0, 2023-09-30 16:23:13.072
45.0, 22308.203257108125, 12966.381068990358, -187500.02235174447, -127506.73323949972, 29577.705809796553, -160371.9112720384, -1545.310204662109, -4624.5982795474865, -0.108, 0.97, -0.1, 192.0, 0.0, 0.0, 0.0, 0.0, 0.0, 0.0, 0.0, 0.0, 0.0, 1.6961089930720203E9, 0.0, 2023-09-30 16:23:13.072
46.0, 22279.995355605526, 13001.585066507467, -187500.02235174447, -128351.11508978785, 29371.66742940753, -161216.27077058205, -1843.6612896515478, -5305.6782848451485, -0.108, 0.97, -0.1, 192.0, 0.0, 0.0, 0.0, 0.0, 0.0, 0.0, 0.0, 0.0, 0.0, 1.6961089930720344E9, 0.0, 2023-09-30 16:23:13.072
47.0, 22374.47617941811, 13001.093328129451, -187500.02235174447, -128464.79606208755, 29403.317499556244, -161369.2908131231, -1836.620490148126, -5405.925858727201, -0.108, 0.97, -0.1, 192.0, 0.0, 0.0, 0.0, 0.0, 0.0, 0.0, 0.0, 0.0, 0.0, 1.6961089930720568E9, 0.0, 2023-09-30 16:23:13.072
48.0, 22410.529543224522, 12969.37620274737, -187500.02235174447, -128046.14788843965, 29577.37053362972, -160963.22667160354, -1601.7483594117593, -5098.321151533264, -0.108, 0.97, -0.1, 192.0, 0.0, 0.0, 0.0, 0.0, 0.0, 0.0, 0.0, 0.0, 0.0, 1.6961089930720766E9, 0.0, 2023-09-30 16:23:13.072
49.0, 22356.214804198124, 12962.335403243947, -187500.02235174447, -128056.58615310027, 29596.928310028114, -160958.53280526793, -1554.5414751221508, -5143.784599755359, -0.10200000000000001, 0.976, -0.1, 192.0, 252.0, 208.0, 30.0, 128.0, 252.0, 224.0, 0.0, 0.0, 0.0, 1.696108993072098E9, 0.0, 2023-09-30 16:23:13.072
50.0, 22304.917550673195, 13001.406252551826, -187500.02235174447, -128880.94084035646, 29397.997784375882, -161770.3928673736, -1832.6418796350813, -5797.86369775101, -0.10200000000000001, 0.976, -0.1, 192.0, 0.0, 0.0, 0.0, 0.0, 0.0, 0.0, 0.0, 0.0, 0.0, 1.6961089930721145E9, 0.0, 2023-09-30 16:23:13.072
51.0, 22386.233197001602, 13020.226421383193, -187500.02235174447, -129176.76617822245, 29365.67716189351, -162102.7186039351, -1912.169386407064, -6028.980735418884, -0.10200000000000001, 0.976, -0.1, 192.0, 0.0, 0.0, 0.0, 0.0, 0.0, 0.0, 0.0, 0.0, 0.0, 1.6961089930721316E9, 0.0, 2023-09-30 16:23:13.072
52.0, 22425.795784687496, 12990.409194279813, -187500.02235174447, -128847.27911320677, 29505.286157761355, -161788.54248387128, -1729.0415440847332, -5784.720872011289, -0.10200000000000001, 0.976, -0.1, 192.0, 0.0, 0.0, 0.0, 0.0, 0.0, 0.0, 0.0, 0.0, 0.0, 1.696108993072153E9, 0.0, 2023-09-30 16:23:13.072
53.0, 22387.261377246545, 12964.99526083413, -187500.02235174447, -128686.70418103984, 29593.910824526647, -161611.96370267437, -1595.0651878196227, -5683.422766139837, -0.10200000000000001, 0.976, -0.1, 192.0, 0.0, 0.0, 0.0, 0.0, 0.0, 0.0, 0.0, 0.0, 0.0, 1.696108993072171E9, 0.0, 2023-09-30 16:23:13.072
54.0, 22302.257693083015, 13000.914514173808, -187500.02235174447, -129467.67413230827, 29408.994842647895, -162364.815159418, -1848.8915978540897, -6310.210384155558, -0.10200000000000001, 0.976, -0.1, 192.0, 0.0, 0.0, 0.0, 0.0, 0.0, 0.0, 0.0, 0.0, 0.0, 1.6961089930721898E9, 0.0, 2023-09-30 16:23:13.072
55.0, 22372.509225906044, 13018.661799271322, -187500.02235174447, -129914.82078013668, 29342.788975571275, -162833.7771098348, -1974.195477270541, -6657.2212168242, -0.10200000000000001, 0.976, -0.1, 192.0, 0.0, 0.0, 0.0, 0.0, 0.0, 0.0, 0.0, 0.0, 0.0, 1.6961089930722082E9, 0.0, 2023-09-30 16:23:13.072
56.0, 22430.243781834102, 12974.450048738725, -187500.02235174447, -129605.6961543198, 29498.245358257933, -162535.40367310093, -1773.8567917176238, -6418.593993019342, -0.10200000000000001, 0.976, -0.1, 192.0, 0.0, 0.0, 0.0, 0.0, 0.0, 0.0, 0.0, 0.0, 0.0, 1.696108993072227E9, 0.0, 2023-09-30 16:23:13.072
57.0, 22400.806534386462, 12957.28390899705, -187500.02235174447, -129357.81530831044, 29597.263586194946, -162272.43539958424, -1619.763865442737, -6248.921900859106, -0.10200000000000001, 0.976, -0.1, 192.0, 0.0, 0.0, 0.0, 0.0, 0.0, 0.0, 0.0, 0.0, 0.0, 1.6961089930722501E9, 0.0, 2023-09-30 16:23:13.072
58.0, 22308.292664085944, 12978.13808657385, -187500.02235174447, -130065.78446218783, 29417.779078218828, -162945.46877687797, -1855.820638635235, -6817.505576313207, -0.10200000000000001, 0.976, -0.1, 192.0, 0.0, 0.0, 0.0, 0.0, 0.0, 0.0, 0.0, 0.0, 0.0, 1.696108993072271E9, 0.0, 2023-09-30 16:23:13.072
59.0, 22356.14774896476, 12996.891200171853, -187500.02235174447, -130656.83164081951, 29314.826943257685, -163550.5528510276, -2026.8785389516997, -7256.449133926527, -0.108, 0.978, -0.096, 192.0, 252.0, 160.0, 30.0, 144.0, 253.0, 0.0, 0.0, 0.0, 0.0, 1.6961089930722911E9, 0.0, 2023-09-30 16:23:13.072
60.0, 22413.72584268163, 12960.726077643167, -187500.02235174447, -130435.34820501188, 29450.457328612487, -163345.94498228372, -1856.5582462022599, -7064.067669399699, -0.108, 0.978, -0.096, 192.0, 0.0, 0.0, 0.0, 0.0, 0.0, 0.0, 0.0, 0.0, 0.0, 1.6961089930723104E9, 0.0, 2023-09-30 16:23:13.072
61.0, 22390.256511003558, 12927.26551619357, -187500.02235174447, -130105.27999464035, 29572.251984149458, -163004.54443747335, -1666.4790113543286, -6811.1576808879, -0.108, 0.978, -0.096, 192.0, 0.0, 0.0, 0.0, 0.0, 0.0, 0.0, 0.0, 0.0, 0.0, 1.6961089930723264E9, 0.0, 2023-09-30 16:23:13.072
62.0, 22293.674623212173, 12930.104187739396, -187500.02235174447, -130621.06884969103, 29458.83923278323, -163486.2468822297, -1802.2211554314085, -7216.573621818259, -0.108, 0.978, -0.096, 192.0, 0.0, 0.0, 0.0, 0.0, 0.0, 0.0, 0.0, 0.0, 0.0, 1.6961089930723426E9, 0.0, 2023-09-30 16:23:13.072
63.0, 22311.578370520874, 12979.032156352063, -187500.02235174447, -131373.29445758992, 29291.961108679905, -164246.63087685476, -2048.4032688621605, -7784.822021105531, -0.108, 0.978, -0.096, 192.0, 0.0, 0.0, 0.0, 0.0, 0.0, 0.0, 0.0, 0.0, 0.0, 1.6961089930723596E9, 0.0, 2023-09-30 16:23:13.072
64.0, 22392.491685449088, 12960.413153220792, -187500.02235174447, -131291.7329420725, 29382.753894657362, -164183.3083848129, -1941.964261765988, -7705.294514333548, -0.108, 0.978, -0.096, 192.0, 0.0, 0.0, 0.0, 0.0, 0.0, 0.0, 0.0, 0.0, 0.0, 1.6961089930723772E9, 0.0, 2023-09-30 16:23:13.072
65.0, 22396.67146166223, 12923.286905680527, -187500.02235174447, -130884.88648949702, 29551.777786228395, -163766.8059786327, -1694.977485534845, -7389.8890483247105, -0.108, 0.978, -0.096, 192.0, 0.0, 0.0, 0.0, 0.0, 0.0, 0.0, 0.0, 0.0, 0.0, 1.6961089930723975E9, 0.0, 2023-09-30 16:23:13.072
66.0, 22302.4141552942, 12929.478338894647, -187500.02235174447, -131278.14308144368, 29455.86645077067, -164124.79151782888, -1796.208536172931, -7718.303229606538, -0.108, 0.978, -0.096, 192.0, 0.0, 0.0, 0.0, 0.0, 0.0, 0.0, 0.0, 0.0, 0.0, 1.6961089930724223E9, 0.0, 2023-09-30 16:23:13.072
67.0, 22282.252881795514, 12947.158568758794, -187500.02235174447, -132132.91849290353, 29258.12056757457, -164974.22486236392, -2075.9182662866433, -8367.174371144101, -0.108, 0.978, -0.096, 192.0, 0.0, 0.0, 0.0, 0.0, 0.0, 0.0, 0.0, 0.0, 0.0, 1.6961089930724356E9, 0.0, 2023-09-30 16:23:13.072
68.0, 22359.008772255038, 12930.707684839688, -187500.02235174447, -132210.4119909301, 29294.956242436918, -165070.78439841085, -2040.4236960916157, -8403.495955883975, -0.108, 0.978, -0.096, 192.0, 0.0, 0.0, 0.0, 0.0, 0.0, 0.0, 0.0, 0.0, 0.0, 1.696108993072448E9, 0.0, 2023-09-30 16:23:13.072
69.0, 22377.13603700829, 12903.41620485976, -187500.02235174447, -131850.50420171075, 29437.716834272964, -164696.54914099566, -1827.0539435212545, -8111.045731430738, -0.11800000000000001, 0.976, -0.10200000000000001, 192.0, 252.0, 80.0, 30.0, 128.0, 252.0, 208.0, 0.0, 0.0, 0.0, 1.69610899307246E9, 0.0, 2023-09-30 16:23:13.072
70.0, 22315.60168452283, 12892.374443098837, -187500.02235174447, -131986.3581045101, 29458.101625216204, -164787.96777581784, -1778.3941958420512, -8200.34095052969, -0.11800000000000001, 0.976, -0.10200000000000001, 192.0, 0.0, 0.0, 0.0, 0.0, 0.0, 0.0, 0.0, 0.0, 0.0, 1.696108993072472E9, 0.0, 2023-09-30 16:23:13.072
71.0, 22279.168341060682, 12921.834042290931, -187500.02235174447, -132866.30158022663, 29265.6084019671, -165639.47983258724, -2049.967890974032, -8849.770885678636, -0.11800000000000001, 0.976, -0.10200000000000001, 192.0, 0.0, 0.0, 0.0, 0.0, 0.0, 0.0, 0.0, 0.0, 0.0, 1.6961089930724845E9, 0.0, 2023-09-30 16:23:13.072
72.0, 22371.123417749815, 12916.55903059948, -187500.02235174447, -133062.52754479976, 29283.802721953718, -165844.33357052013, -2049.4314491071045, -8959.24973002073, -0.11800000000000001, 0.976, -0.10200000000000001, 192.0, 0.0, 0.0, 0.0, 0.0, 0.0, 0.0, 0.0, 0.0, 0.0, 1.696108993072498E9, 0.0, 2023-09-30 16:23:13.072
73.0, 22407.512057723055, 12887.88174246332, -187500.02235174447, -132649.04262412104, 29474.150177735115, -165407.96046351915, -1783.7362627668695, -8601.822984435914, -0.11800000000000001, 0.976, -0.10200000000000001, 192.0, 0.0, 0.0, 0.0, 0.0, 0.0, 0.0, 0.0, 0.0, 0.0, 1.696108993072513E9, 0.0, 2023-09-30 16:23:13.072
74.0, 22357.62296409881, 12912.334550897427, -187500.02235174447, -132667.7063307412, 29489.41641919809, -165377.15975965976, -1729.108599318099, -8611.613048507339, -0.11800000000000001, 0.976, -0.10200000000000001, 192.0, 0.0, 0.0, 0.0, 0.0, 0.0, 0.0, 0.0, 0.0, 0.0, 1.6961089930725276E9, 0.0, 2023-09-30 16:23:13.072
75.0, 22309.969044920093, 12951.51715892758, -187500.02235174447, -133557.10459436235, 29283.065114386693, -166219.239380269, -2012.5734225003032, -9275.54926580778, -0.11800000000000001, 0.976, -0.10200000000000001, 192.0, 0.0, 0.0, 0.0, 0.0, 0.0, 0.0, 0.0, 0.0, 0.0, 1.6961089930725403E9, 0.0, 2023-09-30 16:23:13.072
76.0, 22391.23998775959, 12963.430638722259, -187500.02235174447, -133905.7024008873, 29261.69684668742, -166569.80414030602, -2072.096117984786, -9491.936503879608, -0.11800000000000001, 0.976, -0.10200000000000001, 192.0, 0.0, 0.0, 0.0, 0.0, 0.0, 0.0, 0.0, 0.0, 0.0, 1.6961089930725524E9, 0.0, 2023-09-30 16:23:13.072
77.0, 22438.066892393457, 12929.32187668346, -187500.02235174447, -133534.75284990703, 29442.902438986595, -166181.68844958406, -1824.7293620979026, -9150.29008988024, -0.11800000000000001, 0.976, -0.10200000000000001, 192.0, 0.0, 0.0, 0.0, 0.0, 0.0, 0.0, 0.0, 0.0, 0.0, 1.6961089930725653E9, 0.0, 2023-09-30 16:23:13.072
78.0, 22403.756964654563, 12912.781585786532, -187500.02235174447, -133327.23925438395, 29550.883716450182, -165933.94171404146, -1649.983423946312, -8953.259462506707, -0.11800000000000001, 0.976, -0.10200000000000001, 192.0, 0.0, 0.0, 0.0, 0.0, 0.0, 0.0, 0.0, 0.0, 0.0, 1.6961089930725777E9, 0.0, 2023-09-30 16:23:13.072
79.0, 22322.59778053734, 12950.958365316197, -187500.02235174447, -134135.70185133241, 29355.127138510605, -166698.46078139078, -1906.5590985487818, -9545.22306266106, -0.11800000000000001, 0.976, -0.10200000000000001, 192.0, 0.0, 0.0, 0.0, 0.0, 0.0, 0.0, 0.0, 0.0, 0.0, 1.6961089930726285E9, 0.0, 2023-09-30 16:23:13.072
80.0, 22393.743383138586, 12971.14199055934, -187500.02235174447, -134641.8794562673, 29282.08163763066, -167211.88035152917, -2036.6238995342137, -9868.250473529157, -0.11800000000000001, 0.978, -0.098, 192.0, 252.0, 80.0, 30.0, 144.0, 252.0, 240.0, 0.0, 0.0, 0.0, 1.6961089930726523E9, 0.0, 2023-09-30 16:23:13.072
81.0, 22449.846261721406, 12911.820460774954, -187500.02235174447, -134300.92594634605, 29469.009276510395, -166861.1367775365, -1787.4690040909059, -9521.97724842754, -0.11800000000000001, 0.978, -0.098, 192.0, 0.0, 0.0, 0.0, 0.0, 0.0, 0.0, 0.0, 0.0, 0.0, 1.6961089930726671E9, 0.0, 2023-09-30 16:23:13.072
82.0, 22424.789956187007, 12915.93318175473, -187500.02235174447, -133993.4777013633, 29589.775751802415, -166515.3999943018, -1589.0972720500556, -9234.891442643577, -0.11800000000000001, 0.978, -0.098, 192.0, 0.0, 0.0, 0.0, 0.0, 0.0, 0.0, 0.0, 0.0, 0.0, 1.696108993072687E9, 0.0, 2023-09-30 16:23:13.072
83.0, 22337.3722836223, 12942.867033823375, -187500.02235174447, -134671.9425525597, 29426.4962585564, -167140.44417625002, -1790.0171029588107, -9715.051617032483, -0.11800000000000001, 0.978, -0.098, 192.0, 0.0, 0.0, 0.0, 0.0, 0.0, 0.0, 0.0, 0.0, 0.0, 1.69610899307271E9, 0.0, 2023-09-30 16:23:13.072
84.0, 22372.37511543931, 12973.243054538138, -187500.02235174447, -135334.20238902597, 29297.973727938384, -167795.2608818127, -1984.9913698424543, -10149.614232732563, -0.11800000000000001, 0.978, -0.098, 192.0, 0.0, 0.0, 0.0, 0.0, 0.0, 0.0, 0.0, 0.0, 0.0, 1.6961089930727324E9, 0.0, 2023-09-30 16:23:13.072
85.0, 22441.44200580621, 12931.780568573544, -187500.02235174447, -135122.35255507857, 29440.555505818786, -167573.86685298287, -1805.395103144062, -9903.05213964607, -0.11800000000000001, 0.978, -0.098, 192.0, 0.0, 0.0, 0.0, 0.0, 0.0, 0.0, 0.0, 0.0, 0.0, 1.6961089930727766E9, 0.0, 2023-09-30 16:23:13.072
86.0, 22434.15533711378, 12887.747631996588, -187500.02235174447, -134728.93950092074, 29596.28010943891, -167147.55203098682, -1569.0030537847347, -9543.993716716019, -0.11800000000000001, 0.978, -0.098, 192.0, 0.0, 0.0, 0.0, 0.0, 0.0, 0.0, 0.0, 0.0, 0.0, 1.6961089930728433E9, 0.0, 2023-09-30 16:23:13.072
87.0, 22324.005940438026, 12877.063498146952, -187500.02235174447, -135213.48061722287, 29496.45721870151, -167586.42853336676, -1684.6509795964932, -9889.372872039423, -0.11800000000000001, 0.978, -0.098, 192.0, 0.0, 0.0, 0.0, 0.0, 0.0, 0.0, 0.0, 0.0, 0.0, 1.6961089930729089E9, 0.0, 2023-09-30 16:23:13.072
88.0, 22332.589010308864, 12925.902059781798, -187500.02235174447, -135989.0414463331, 29342.00666451534, -168361.07294095433, -1916.9750114649548, -10443.606727553217, -0.11800000000000001, 0.978, -0.098, 192.0, 0.0, 0.0, 0.0, 0.0, 0.0, 0.0, 0.0, 0.0, 0.0, 1.6961089930729592E9, 0.0, 2023-09-30 16:23:13.072
89.0, 22424.789956187007, 12921.476414379647, -187500.02235174447, -135930.3904688824, 29435.21343889397, -168313.53078049788, -1810.6477630910592, -10356.18905498851, -0.11800000000000001, 0.978, -0.098, 192.0, 0.0, 0.0, 0.0, 0.0, 0.0, 0.0, 0.0, 0.0, 0.0, 1.6961089930730028E9, 0.0, 2023-09-30 16:23:13.073
90.0, 22426.309874809966, 12898.431765846226, -187500.02235174447, -135539.83843801482, 29578.19754817457, -167900.42583947492, -1592.830013374092, -10038.03432441167, -0.11, 0.976, -0.096, 192.0, 252.0, 144.0, 30.0, 128.0, 253.0, 0.0, 0.0, 0.0, 0.0, 1.6961089930730386E9, 0.0, 2023-09-30 16:23:13.073
91.0, 22344.65895231473, 12889.35695759737, -187500.02235174447, -135909.69275351678, 29483.3590964507, -168219.5640468078, -1693.010532022778, -10332.965592499446, -0.11, 0.976, -0.096, 192.0, 0.0, 0.0, 0.0, 0.0, 0.0, 0.0, 0.0, 0.0, 0.0, 1.6961089930730853E9, 0.0, 2023-09-30 16:23:13.073
92.0, 22323.782422993474, 12913.541545098013, -187500.02235174447, -136786.17170884274, 29291.491722046343, -169074.83119664565, -1968.8310586012674, -10982.551989859581, -0.11, 0.976, -0.096, 192.0, 0.0, 0.0, 0.0, 0.0, 0.0, 0.0, 0.0, 0.0, 0.0, 1.6961089930731332E9, 0.0, 2023-09-30 16:23:13.073
93.0, 22402.907598365262, 12913.429786375737, -187500.02235174447, -136881.1666227778, 29335.43525164548, -169177.64922114008, -1935.2810901738515, -11019.387664721926, -0.11, 0.976, -0.096, 192.0, 0.0, 0.0, 0.0, 0.0, 0.0, 0.0, 0.0, 0.0, 0.0, 1.6961089930731623E9, 0.0, 2023-09-30 16:23:13.073
94.0, 22420.76664218505, 12877.532884780514, -187500.02235174447, -136443.0500797093, 29522.36289052521, -168714.7222417262, -1674.1903631914097, -10649.9133288757, -0.11, 0.976, -0.096, 192.0, 0.0, 0.0, 0.0, 0.0, 0.0, 0.0, 0.0, 0.0, 0.0, 1.6961089930731976E9, 0.0, 2023-09-30 16:23:13.073
95.0, 22346.692961060162, 12884.238408117106, -187500.02235174447, -136612.83393059182, 29485.147236007124, -168837.7462432082, -1693.9716570343564, -10790.32698754394, -0.11, 0.976, -0.096, 192.0, 0.0, 0.0, 0.0, 0.0, 0.0, 0.0, 0.0, 0.0, 0.0, 1.696108993073239E9, 0.0, 2023-09-30 16:23:13.073
96.0, 22304.93990241765, 12921.163489957273, -187500.02235174447, -137556.68104370608, 29262.725026932363, -169751.97729491917, -2006.0690648638088, -11503.817022301797, -0.11, 0.976, -0.096, 192.0, 0.0, 0.0, 0.0, 0.0, 0.0, 0.0, 0.0, 0.0, 0.0, 1.696108993073279E9, 0.0, 2023-09-30 16:23:13.073
97.0, 22391.597615670875, 12923.689237080722, -187500.02235174447, -137824.2314248361, 29260.534555975744, -170028.69189127587, -2039.127294913208, -11674.003204584504, -0.11, 0.976, -0.096, 192.0, 0.0, 0.0, 0.0, 0.0, 0.0, 0.0, 0.0, 0.0, 0.0, 1.6961089930733209E9, 0.0, 2023-09-30 16:23:13.073
98.0, 22444.48184305213, 12896.688329778712, -187500.02235174447, -137433.70174571298, 29446.791642521817, -169620.54903752197, -1786.30671337923, -11341.72217151191, -0.11, 0.976, -0.096, 192.0, 0.0, 0.0, 0.0, 0.0, 0.0, 0.0, 0.0, 0.0, 0.0, 1.6961089930733504E9, 0.0, 2023-09-30 16:23:13.073
99.0, 22404.62868268832, 12892.12857390983, -187500.02235174447, -137410.7241524129, 29484.87901507366, -169555.1701849902, -1705.594564151116, -11331.865052207118, -0.11, 0.976, -0.096, 192.0, 0.0, 0.0, 0.0, 0.0, 0.0, 0.0, 0.0, 0.0, 0.0, 1.6961089930733843E9, 0.0, 2023-09-30 16:23:13.073
100.0, 22346.33533314888, 12916.782548044033, -187500.02235174447, -138336.68986996292, 29271.12928284756, -170436.8794485187, -1996.6589804481246, -12054.452246958286, -0.114, 0.974, -0.094, 192.0, 252.0, 112.0, 30.0, 112.0, 253.0, 16.0, 0.0, 0.0, 0.0, 1.696108993073439E9, 0.0, 2023-09-30 16:23:13.073
101.0, 22418.732633439617, 12928.092530738419, -187500.02235174447, -138764.7034245376, 29242.764919133773, -170853.91829656583, -2069.0786324833193, -12370.483561811872, -0.114, 0.974, -0.094, 192.0, 0.0, 0.0, 0.0, 0.0, 0.0, 0.0, 0.0, 0.0, 0.0, 1.6961089930734956E9, 0.0, 2023-09-30 16:23:13.073
102.0, 22459.72573277065, 12899.996387958097, -187500.02235174447, -138494.80611023976, 29390.19702556098, -170546.49240332752, -1866.3036067847738, -12168.334384958076, -0.114, 0.974, -0.094, 192.0, 0.0, 0.0, 0.0, 0.0, 0.0, 0.0, 0.0, 0.0, 0.0, 1.696108993073531E9, 0.0, 2023-09-30 16:23:13.073
103.0, 22430.53435451202, 12889.044033174996, -187500.02235174447, -138369.18930640095, 29468.62929685465, -170362.716360416, -1732.0590295861996, -12113.259686620198, -0.114, 0.974, -0.094, 192.0, 0.0, 0.0, 0.0, 0.0, 0.0, 0.0, 0.0, 0.0, 0.0, 1.6961089930735655E9, 0.0, 2023-09-30 16:23:13.073
104.0, 22348.3246384054, 12917.296638166505, -187500.02235174447, -139259.03460491117, 29267.21772756788, -171187.33926860563, -2000.9952188724542, -12854.421181013726, -0.114, 0.974, -0.094, 192.0, 0.0, 0.0, 0.0, 0.0, 0.0, 0.0, 0.0, 0.0, 0.0, 1.6961089930736077E9, 0.0, 2023-09-30 16:23:13.073
105.0, 22415.82690666043, 12940.698914611212, -187500.02235174447, -139907.25754585952, 29176.91667996844, -171812.91989242076, -2159.5584940384024, -13376.31206230069, -0.114, 0.974, -0.094, 192.0, 0.0, 0.0, 0.0, 0.0, 0.0, 0.0, 0.0, 0.0, 0.0, 1.6961089930736644E9, 0.0, 2023-09-30 16:23:13.073
106.0, 22471.750971287605, 12921.252896935093, -187500.02235174447, -139727.77303788342, 29324.348786395647, -171600.86889277326, -1971.714433636002, -13257.691354476376, -0.114, 0.974, -0.094, 192.0, 0.0, 0.0, 0.0, 0.0, 0.0, 0.0, 0.0, 0.0, 0.0, 1.6961089930737169E9, 0.0, 2023-09-30 16:23:13.073
107.0, 22443.63247676283, 12891.212152387161, -187500.02235174447, -139479.1098808181, 29456.380540893144, -171291.2301768339, -1767.240675358853, -13107.621742203444, -0.114, 0.974, -0.094, 192.0, 0.0, 0.0, 0.0, 0.0, 0.0, 0.0, 0.0, 0.0, 0.0, 1.6961089930737784E9, 0.0, 2023-09-30 16:23:13.073
108.0, 22346.245926171057, 12882.562027282958, -187500.02235174447, -140200.62419183544, 29306.735611764863, -171929.26072231063, -1951.3296426927618, -13719.85837457876, -0.114, 0.974, -0.094, 192.0, 0.0, 0.0, 0.0, 0.0, 0.0, 0.0, 0.0, 0.0, 0.0, 1.6961089930738523E9, 0.0, 2023-09-30 16:23:13.073
109.0, 22385.495589434577, 12918.704798067189, -187500.02235174447, -140966.73023304107, 29185.67856379492, -172652.40671067318, -2142.99585139702, -14333.190242432385, -0.114, 0.974, -0.094, 192.0, 0.0, 0.0, 0.0, 0.0, 0.0, 0.0, 0.0, 0.0, 0.0, 1.696108993073907E9, 0.0, 2023-09-30 16:23:13.073
110.0, 22447.87930820934, 12915.061463720975, -187500.02235174447, -140920.79739818542, 29293.548082536232, -172561.30100027335, -2012.484015522482, -14314.437128834383, -0.114, 0.974, -0.094, 192.0, 0.0, 0.0, 0.0, 0.0, 0.0, 0.0, 0.0, 0.0, 0.0, 1.6961089930739524E9, 0.0, 2023-09-30 16:23:13.073
111.0, 22440.659694750273, 12885.780678484522, -187500.02235174447, -140636.72907790294, 29443.30477038679, -172200.11916162004, -1789.368902369607, -14118.233516005697, -0.114, 0.976, -0.094, 192.0, 252.0, 112.0, 30.0, 128.0, 253.0, 16.0, 0.0, 0.0, 0.0, 1.6961089930740044E9, 0.0, 2023-09-30 16:23:13.074
112.0, 22354.627830341797, 12894.341396610904, -187500.02235174447, -141231.82192228103, 29326.22633292989, -172691.5669669589, -1928.1508836926084, -14618.622019126657, -0.114, 0.976, -0.094, 192.0, 0.0, 0.0, 0.0, 0.0, 0.0, 0.0, 0.0, 0.0, 0.0, 1.6961089930740616E9, 0.0, 2023-09-30 16:23:13.074
113.0, 22360.41693215572, 12927.824309804953, -187500.02235174447, -142150.97035777217, 29156.01779890273, -173541.78262254986, -2180.636189059757, -15328.289905582657, -0.114, 0.976, -0.094, 192.0, 0.0, 0.0, 0.0, 0.0, 0.0, 0.0, 0.0, 0.0, 0.0, 1.696108993074113E9, 0.0, 2023-09-30 16:23:13.074
114.0, 22438.78214821603, 12918.369521900358, -187500.02235174447, -142254.6824520448, 29226.53755265922, -173600.32184127832, -2101.443958454604, -15391.388880179988, -0.114, 0.976, -0.094, 192.0, 0.0, 0.0, 0.0, 0.0, 0.0, 0.0, 0.0, 0.0, 0.0, 1.6961089930741656E9, 0.0, 2023-09-30 16:23:13.074
115.0, 22444.459491307676, 12885.803030228977, -187500.02235174447, -141941.10982908128, 29400.612938477152, -173223.4267262729, -1846.2764437528187, -15127.906516540828, -0.114, 0.976, -0.094, 192.0, 0.0, 0.0, 0.0, 0.0, 0.0, 0.0, 0.0, 0.0, 0.0, 1.696108993074232E9, 0.0, 2023-09-30 16:23:13.074
116.0, 22361.176891467203, 12896.196591400694, -187500.02235174447, -142349.78912470213, 29343.079548249192, -173548.97988426447, -1901.3064386017847, -15447.15648259598, -0.114, 0.976, -0.094, 192.0, 0.0, 0.0, 0.0, 0.0, 0.0, 0.0, 0.0, 0.0, 0.0, 1.6961089930743432E9, 0.0, 2023-09-30 16:23:13.074
117.0, 22337.573449322397, 12921.476414379647, -187500.02235174447, -143321.44180791877, 29162.522156539224, -174464.75320634287, -2159.2008661271175, -16168.469627913193, -0.114, 0.976, -0.094, 192.0, 0.0, 0.0, 0.0, 0.0, 0.0, 0.0, 0.0, 0.0, 0.0, 1.6961089930744004E9, 0.0, 2023-09-30 16:23:13.074
118.0, 22416.028072360525, 12946.666830380778, -187500.02235174447, -143593.26137223977, 29171.172281643427, -174714.9362820311, -2163.8500289738213, -16345.160167832395, -0.114, 0.976, -0.094, 192.0, 0.0, 0.0, 0.0, 0.0, 0.0, 0.0, 0.0, 0.0, 0.0, 1.6961089930744355E9, 0.0, 2023-09-30 16:23:13.074
119.0, 22439.944438927705, 12911.194611930207, -187500.02235174447, -143319.3183921955, 29331.881324277085, -174392.2664990743, -1935.6610698295917, -16102.129650369841, -0.114, 0.976, -0.094, 192.0, 0.0, 0.0, 0.0, 0.0, 0.0, 0.0, 0.0, 0.0, 0.0, 1.6961089930744617E9, 0.0, 2023-09-30 16:23:13.074
120.0, 22369.782313082495, 12888.462887819158, -187500.02235174447, -143493.10320533553, 29350.925010553005, -174494.68219216852, -1883.1791738485306, -16224.237230329185, -0.114, 0.976, -0.094, 192.0, 0.0, 0.0, 0.0, 0.0, 0.0, 0.0, 0.0, 0.0, 0.0, 1.6961089930744956E9, 0.0, 2023-09-30 16:23:13.074
121.0, 22326.46463232811, 12950.51133042709, -187500.02235174447, -144494.21548774428, 29146.987694142783, -175437.903456438, -2170.0414621879413, -16975.859341127794, -0.11800000000000001, 0.98, -0.088, 192.0, 252.0, 80.0, 30.0, 160.0, 253.0, 64.0, 0.0, 0.0, 0.0, 1.6961089935502777E9, 0.0, 2023-09-30 16:23:13.550
122.0, 22414.172877570734, 12963.095362555428, -187500.02235174447, -144865.9026462916, 29148.5299645102, -175799.08529509132, -2204.373741671293, -17218.845155101437, -0.11800000000000001, 0.98, -0.088, 192.0, 0.0, 0.0, 0.0, 0.0, 0.0, 0.0, 0.0, 0.0, 0.0, 1.6961089935503917E9, 0.0, 2023-09-30 16:23:13.550
123.0, 22452.10378791139, 12923.84569929191, -187500.02235174447, -144579.88972424148, 29325.444021873955, -175485.24445119436, -1963.3548812097172, -16950.98184954904, -0.11800000000000001, 0.98, -0.088, 192.0, 0.0, 0.0, 0.0, 0.0, 0.0, 0.0, 0.0, 0.0, 0.0, 1.6961089935504744E9, 0.0, 2023-09-30 16:23:13.550
124.0, 22408.830810645915, 12911.50753635258, -187500.02235174447, -144576.76048001772, 29392.05222035077, -175433.74603196932, -1845.8517606081678, -16929.032436493926, -0.11800000000000001, 0.98, -0.088, 192.0, 0.0, 0.0, 0.0, 0.0, 0.0, 0.0, 0.0, 0.0, 0.0, 1.6961089935505028E9, 0.0, 2023-09-30 16:23:13.550
125.0, 22337.46169060012, 12945.482187924646, -187500.02235174447, -145516.20429947428, 29200.00603199077, -176320.64090021147, -2101.734531132523, -17632.821814158182, -0.11800000000000001, 0.98, -0.088, 192.0, 0.0, 0.0, 0.0, 0.0, 0.0, 0.0, 0.0, 0.0, 0.0, 1.696108993550516E9, 0.0, 2023-09-30 16:23:13.550
126.0, 22404.896903621782, 12961.910720099297, -187500.02235174447, -146012.74830254892, 29172.468682821833, -176814.50269395145, -2171.6284360442683, -17965.12519897523, -0.11800000000000001, 0.98, -0.088, 192.0, 0.0, 0.0, 0.0, 0.0, 0.0, 0.0, 0.0, 0.0, 0.0, 1.6961089935505288E9, 0.0, 2023-09-30 16:23:13.550
127.0, 22448.616915776365, 12948.678487381756, -187500.02235174447, -145783.24059048184, 29334.272960933802, -176569.5722782102, -1953.4754101604713, -17744.222908523432, -0.11800000000000001, 0.98, -0.088, 192.0, 0.0, 0.0, 0.0, 0.0, 0.0, 0.0, 0.0, 0.0, 0.0, 1.6961089935505412E9, 0.0, 2023-09-30 16:23:13.550
128.0, 22412.49649673659, 12945.258670480094, -187500.02235174447, -145672.66651066142, 29417.264988096358, -176419.56972117064, -1809.4407688904726, -17650.099712622134, -0.11800000000000001, 0.98, -0.088, 192.0, 0.0, 0.0, 0.0, 0.0, 0.0, 0.0, 0.0, 0.0, 0.0, 1.6961089935505528E9, 0.0, 2023-09-30 16:23:13.550
129.0, 22326.218763139103, 12952.970022317175, -187500.02235174447, -146508.6888085233, 29250.722140159865, -177204.1830067853, -2024.3304400837947, -18294.232284335172, -0.11800000000000001, 0.98, -0.088, 192.0, 0.0, 0.0, 0.0, 0.0, 0.0, 0.0, 0.0, 0.0, 0.0, 1.6961089935505645E9, 0.0, 2023-09-30 16:23:13.550
130.0, 22379.86294983184, 12985.871790155386, -187500.02235174447, -147172.1332874457, 29163.19270887288, -177867.64983745216, -2168.8791714762656, -18780.561540193743, -0.11800000000000001, 0.98, -0.088, 192.0, 0.0, 0.0, 0.0, 0.0, 0.0, 0.0, 0.0, 0.0, 0.0, 1.6961089935505767E9, 0.0, 2023-09-30 16:23:13.550
131.0, 22437.597505759895, 12957.440371208237, -187500.02235174447, -147055.94891976702, 29284.003887653816, -177751.42076628457, -2008.9971433874541, -18669.339259784134, -0.116, 0.982, -0.094, 192.0, 252.0, 96.0, 30.0, 176.0, 253.0, 16.0, 0.0, 0.0, 0.0, 1.6961089935505884E9, 0.0, 2023-09-30 16:23:13.550
132.0, 22422.621836974842, 12922.683408580233, -187500.02235174447, -146805.51997488976, 29425.557485289275, -177480.20469906388, -1793.526326838294, -18464.351411384512, -0.116, 0.982, -0.094, 192.0, 0.0, 0.0, 0.0, 0.0, 0.0, 0.0, 0.0, 0.0, 0.0, 1.6961089935506003E9, 0.0, 2023-09-30 16:23:13.550
133.0, 22333.95246672064, 12945.817464091477, -187500.02235174447, -147494.42309074677, 29290.731762734864, -178132.92034064775, -1958.1692764960858, -19001.128554478713, -0.116, 0.982, -0.094, 192.0, 0.0, 0.0, 0.0, 0.0, 0.0, 0.0, 0.0, 0.0, 0.0, 1.6961089935506124E9, 0.0, 2023-09-30 16:23:13.550
134.0, 22356.885356531784, 12971.298452770527, -187500.02235174447, -148308.8088999759, 29144.90898190844, -178955.73275753652, -2175.4952878350364, -19603.239846615776, -0.116, 0.982, -0.094, 192.0, 0.0, 0.0, 0.0, 0.0, 0.0, 0.0, 0.0, 0.0, 0.0, 1.6961089935506237E9, 0.0, 2023-09-30 16:23:13.550
135.0, 22431.115499867858, 12960.077877053962, -187500.02235174447, -148289.67580672214, 29241.759090633284, -178959.15257443817, -2054.102963698264, -19549.729770389768, -0.116, 0.982, -0.094, 192.0, 0.0, 0.0, 0.0, 0.0, 0.0, 0.0, 0.0, 0.0, 0.0, 1.696108993550635E9, 0.0, 2023-09-30 16:23:13.550
136.0, 22430.042616134004, 12927.600792360401, -187500.02235174447, -147988.933085076, 29397.97543263143, -178654.6100562346, -1820.1249027401095, -19278.379592702342, -0.116, 0.982, -0.094, 192.0, 0.0, 0.0, 0.0, 0.0, 0.0, 0.0, 0.0, 0.0, 0.0, 1.6961089935506463E9, 0.0, 2023-09-30 16:23:13.550
137.0, 22341.015617968515, 12950.399571704815, -187500.02235174447, -148535.43323700826, 29289.345954578635, -179176.85856543286, -1939.4161628980833, -19677.581748674125, -0.116, 0.982, -0.094, 192.0, 0.0, 0.0, 0.0, 0.0, 0.0, 0.0, 0.0, 0.0, 0.0, 1.696108993550658E9, 0.0, 2023-09-30 16:23:13.550
138.0, 22345.731836048584, 12978.562769718501, -187500.02235174447, -149456.9286056672, 29118.355109495536, -180107.33933536283, -2190.0462734754415, -20326.54229718951, -0.116, 0.982, -0.094, 192.0, 0.0, 0.0, 0.0, 0.0, 0.0, 0.0, 0.0, 0.0, 0.0, 1.6961089935506697E9, 0.0, 2023-09-30 16:23:13.550
139.0, 22421.593656729896, 12963.52004570008, -187500.02235174447, -149521.7933680765, 29211.83010480763, -180209.82208369044, -2084.8142605798557, -20292.411183406257, -0.116, 0.982, -0.094, 192.0, 0.0, 0.0, 0.0, 0.0, 0.0, 0.0, 0.0, 0.0, 0.0, 1.6961089935506818E9, 0.0, 2023-09-30 16:23:13.550
140.0, 22426.600447487886, 12943.336420456937, -187500.02235174447, -149201.55992526532, 29373.05323756376, -179903.89375733063, -1848.6904321539919, -19974.502322018423, -0.116, 0.982, -0.094, 192.0, 0.0, 0.0, 0.0, 0.0, 0.0, 0.0, 0.0, 0.0, 0.0, 1.6961089935506935E9, 0.0, 2023-09-30 16:23:13.550
141.0, 22355.119568719812, 12939.670734366267, -187500.02235174447, -149527.26954546804, 29337.066928990716, -180221.26617685155, -1873.456165010472, -20174.416324426693, -0.114, 0.982, -0.094, 192.0, 252.0, 112.0, 30.0, 176.0, 253.0, 16.0, 0.0, 0.0, 0.0, 1.6961089935507054E9, 0.0, 2023-09-30 16:23:13.550
142.0, 22326.84461198385, 12991.459726269213, -187500.02235174447, -150548.92308103121, 29118.980958340286, -181252.30744508596, -2181.8878867492544, -20893.94133018748, -0.114, 0.982, -0.094, 192.0, 0.0, 0.0, 0.0, 0.0, 0.0, 0.0, 0.0, 0.0, 0.0, 1.6961089935507174E9, 0.0, 2023-09-30 16:23:13.550
143.0, 22417.413880516753, 13004.982531664675, -187500.02235174447, -150832.0079245577, 29133.464888747323, -181581.05690253462, -2186.1347181957626, -21022.195639872032, -0.114, 0.982, -0.094, 192.0, 0.0, 0.0, 0.0, 0.0, 0.0, 0.0, 0.0, 0.0, 0.0, 1.6961089935507305E9, 0.0, 2023-09-30 16:23:13.550
144.0, 22439.475052294143, 12978.674528440777, -187500.02235174447, -150556.32150844592, 29288.049553400226, -181327.4987134336, -1965.2771312328734, -20720.178868791925, -0.114, 0.982, -0.094, 192.0, 0.0, 0.0, 0.0, 0.0, 0.0, 0.0, 0.0, 0.0, 0.0, 1.6961089935507426E9, 0.0, 2023-09-30 16:23:13.550
145.0, 22382.366345210834, 12971.879598126365, -187500.02235174447, -150720.00333309214, 29300.74534425084, -181492.11931134693, -1925.3122121467845, -20781.24383464382, -0.114, 0.982, -0.094, 192.0, 0.0, 0.0, 0.0, 0.0, 0.0, 0.0, 0.0, 0.0, 0.0, 1.6961089935507543E9, 0.0, 2023-09-30 16:23:13.550
146.0, 22334.80183300994, 12999.640464739856, -187500.02235174447, -151747.4236187248, 29088.403771925423, -182532.57066399703, -2225.093808781363, -21497.550189203048, -0.114, 0.982, -0.094, 192.0, 0.0, 0.0, 0.0, 0.0, 0.0, 0.0, 0.0, 0.0, 0.0, 1.6961089935507662E9, 0.0, 2023-09-30 16:23:13.550
147.0, 22394.883322105805, 13020.539345805568, -187500.02235174447, -152241.35246769816, 29034.156088132393, -183082.82590899777, -2329.208234454183, -21785.708878720867, -0.114, 0.982, -0.094, 192.0, 0.0, 0.0, 0.0, 0.0, 0.0, 0.0, 0.0, 0.0, 0.0, 1.696108993550778E9, 0.0, 2023-09-30 16:23:13.550
148.0, 22432.948342913194, 12993.180810592272, -187500.02235174447, -152026.90983139395, 29188.785456274207, -182903.5202149773, -2127.349630278305, -21522.181811592796, -0.114, 0.982, -0.094, 192.0, 0.0, 0.0, 0.0, 0.0, 0.0, 0.0, 0.0, 0.0, 0.0, 1.6961089935507894E9, 0.0, 2023-09-30 16:23:13.550
149.0, 22391.172932526224, 12974.293586527538, -187500.02235174447, -152037.59396524358, 29254.4548814839, -182931.10226763514, -2024.0845708947863, -21453.181976459262, -0.114, 0.982, -0.094, 192.0, 0.0, 0.0, 0.0, 0.0, 0.0, 0.0, 0.0, 0.0, 0.0, 1.6961089935508013E9, 0.0, 2023-09-30 16:23:13.550
150.0, 22312.271274598992, 12983.971891876685, -187500.02235174447, -153026.83747134657, 29051.143413918428, -183939.6576809475, -2307.080007443429, -22131.177441022093, -0.114, 0.982, -0.094, 192.0, 0.0, 0.0, 0.0, 0.0, 0.0, 0.0, 0.0, 0.0, 0.0, 1.6961089935508127E9, 0.0, 2023-09-30 16:23:13.550
151.0, 22382.165179510735, 12992.71142395871, -187500.02235174447, -153657.04490626394, 28978.5896514165, -184638.5743783205, -2445.4149538773245, -22494.706212843208, -0.114, 0.982, -0.094, 192.0, 0.0, 0.0, 0.0, 0.0, 0.0, 0.0, 0.0, 0.0, 0.0, 1.6961089935508249E9, 0.0, 2023-09-30 16:23:13.550
152.0, 22427.293351566, 12960.636670665344, -187500.02235174447, -153524.07437849932, 29114.689423404867, -184561.68437739427, -2272.9041901712644, -22265.89140485423, -0.108, 0.976, -0.08600000000000001, 192.0, 252.0, 160.0, 30.0, 128.0, 253.0, 80.0, 0.0, 0.0, 0.0, 1.696108993550836E9, 0.0, 2023-09-30 16:23:13.550
153.0, 22397.43142097371, 12950.600737404911, -187500.02235174447, -153443.13871182667, 29200.341308157604, -184511.72822853664, -2137.51967400547, -22097.046327238837, -0.108, 0.976, -0.08600000000000001, 192.0, 0.0, 0.0, 0.0, 0.0, 0.0, 0.0, 0.0, 0.0, 0.0, 1.6961089935508478E9, 0.0, 2023-09-30 16:23:13.550
154.0, 22313.3665100773, 12979.680356941266, -187500.02235174447, -154382.44842081648, 28997.655689436877, -185475.1331180493, -2410.389770315858, -22731.791166280647, -0.108, 0.976, -0.08600000000000001, 192.0, 0.0, 0.0, 0.0, 0.0, 0.0, 0.0, 0.0, 0.0, 0.0, 1.6961089935508597E9, 0.0, 2023-09-30 16:23:13.550
155.0, 22367.927118292704, 13016.627790525888, -187500.02235174447, -155221.3764454575, 28862.695856415732, -186388.33598951533, -2633.9519183578395, -23261.147530215687, -0.108, 0.976, -0.08600000000000001, 192.0, 0.0, 0.0, 0.0, 0.0, 0.0, 0.0, 0.0, 0.0, 0.0, 1.6961089935508723E9, 0.0, 2023-09-30 16:23:13.550
156.0, 22433.551840013486, 12992.95729314772, -187500.02235174447, -155217.2413727333, 28978.83552060551, -186459.19101943864, -2504.1553383058713, -23136.849479299723, -0.108, 0.976, -0.08600000000000001, 192.0, 0.0, 0.0, 0.0, 0.0, 0.0, 0.0, 0.0, 0.0, 0.0, 1.6961089935508845E9, 0.0, 2023-09-30 16:23:13.550
157.0, 22414.463450248655, 12960.748429387622, -187500.02235174447, -155058.11930395596, 29108.5203419352, -186354.36133794324, -2320.6922198167113, -22909.129906789054, -0.108, 0.976, -0.08600000000000001, 192.0, 0.0, 0.0, 0.0, 0.0, 0.0, 0.0, 0.0, 0.0, 0.0, 1.6961089935508964E9, 0.0, 2023-09-30 16:23:13.550
158.0, 22331.382016108277, 12970.963176603696, -187500.02235174447, -155833.21074643265, 28972.26410773565, -187174.6256559641, -2508.5362802191116, -23418.235590247583, -0.108, 0.976, -0.08600000000000001, 192.0, 0.0, 0.0, 0.0, 0.0, 0.0, 0.0, 0.0, 0.0, 0.0, 1.6961089935509083E9, 0.0, 2023-09-30 16:23:13.550
159.0, 22352.973801252105, 13009.38582532237, -187500.02235174447, -156838.48045331007, 28793.6960212822, -187500.02235174447, -2795.577382514165, -24075.488635955888, -0.108, 0.976, -0.08600000000000001, 192.0, 0.0, 0.0, 0.0, 0.0, 0.0, 0.0, 0.0, 0.0, 0.0, 1.6961089935509212E9, 0.0, 2023-09-30 16:23:13.550
160.0, 22432.233087090623, 12990.699766957732, -187500.02235174447, -156991.20992317318, 28865.646286683834, -187500.02235174447, -2734.6018236400873, -24060.736484615387, -0.108, 0.976, -0.08600000000000001, 192.0, 0.0, 0.0, 0.0, 0.0, 0.0, 0.0, 0.0, 0.0, 0.0, 1.6961089935509331E9, 0.0, 2023-09-30 16:23:13.550
161.0, 22432.21073534617, 12965.039964323041, -187500.02235174447, -156776.74493512453, 29027.60702700699, -187500.02235174447, -2517.141701834405, -23756.730408278752, -0.108, 0.976, -0.08600000000000001, 192.0, 0.0, 0.0, 0.0, 0.0, 0.0, 0.0, 0.0, 0.0, 0.0, 1.6961089935509448E9, 0.0, 2023-09-30 16:23:13.550
162.0, 22346.000056982048, 12979.143915074339, -187500.02235174447, -157363.23235788732, 28948.705369079755, -187500.02235174447, -2624.586537431066, -24084.943423860484, -0.112, 0.978, -0.08600000000000001, 192.0, 252.0, 128.0, 30.0, 144.0, 253.0, 80.0, 0.0, 0.0, 0.0, 1.6961089935509572E9, 0.0, 2023-09-30 16:23:13.550
163.0, 22346.625905826797, 13017.119528903906, -187500.02235174447, -158447.82840583666, 28755.318076052437, -187500.02235174447, -2931.118360891147, -24768.23625185922, -0.112, 0.978, -0.08600000000000001, 192.0, 0.0, 0.0, 0.0, 0.0, 0.0, 0.0, 0.0, 0.0, 0.0, 1.6961089935509684E9, 0.0, 2023-09-30 16:23:13.550
164.0, 22436.234049348124, 13023.646238284855, -187500.02235174447, -158693.65289135612, 28822.641530351822, -187500.02235174447, -2888.091252814681, -24785.11181892298, -0.112, 0.978, -0.08600000000000001, 192.0, 0.0, 0.0, 0.0, 0.0, 0.0, 0.0, 0.0, 0.0, 0.0, 1.69610899355098E9, 0.0, 2023-09-30 16:23:13.550
165.0, 22448.594564031908, 13014.90670620283, -187500.02235174447, -158515.33067409167, 28959.50126165167, -187500.02235174447, -2702.795291280185, -24500.775277707016, -0.112, 0.978, -0.08600000000000001, 192.0, 0.0, 0.0, 0.0, 0.0, 0.0, 0.0, 0.0, 0.0, 0.0, 1.6961089935509915E9, 0.0, 2023-09-30 16:23:13.550
166.0, 22383.685098133697, 13012.023331168097, -187500.02235174447, -158929.97788548208, 28926.890066491374, -187500.02235174447, -2748.9292918359392, -24689.178131720797, -0.112, 0.978, -0.08600000000000001, 192.0, 0.0, 0.0, 0.0, 0.0, 0.0, 0.0, 0.0, 0.0, 0.0, 1.6961089935510032E9, 0.0, 2023-09-30 16:23:13.551
167.0, 22354.672533830708, 13048.903709519353, -187500.02235174447, -160061.1326171318, 28719.68939539068, -187500.02235174447, -3069.207438136034, -25403.673994979144, -0.112, 0.978, -0.08600000000000001, 192.0, 0.0, 0.0, 0.0, 0.0, 0.0, 0.0, 0.0, 0.0, 0.0, 1.6961089935510292E9, 0.0, 2023-09-30 16:23:13.551
168.0, 22433.86476443586, 13072.574206897523, -187500.02235174447, -160527.56882042513, 28690.319203176405, -187500.02235174447, -3150.8360088868153, -25601.710450853167, -0.112, 0.978, -0.08600000000000001, 192.0, 0.0, 0.0, 0.0, 0.0, 0.0, 0.0, 0.0, 0.0, 0.0, 1.696108993551041E9, 0.0, 2023-09-30 16:23:13.551
169.0, 22475.439009122732, 13039.404218125846, -187500.02235174447, -160317.0824428895, 28858.404321480313, -187500.02235174447, -2933.2417766144013, -25280.202958608028, -0.112, 0.978, -0.08600000000000001, 192.0, 0.0, 0.0, 0.0, 0.0, 0.0, 0.0, 0.0, 0.0, 0.0, 1.6961089935510523E9, 0.0, 2023-09-30 16:23:13.551
170.0, 22429.282656822525, 13027.736607520177, -187500.02235174447, -160482.12772394752, 28899.19625511125, -187500.02235174447, -2873.9425985744715, -25283.600423765234, -0.112, 0.978, -0.08600000000000001, 192.0, 0.0, 0.0, 0.0, 0.0, 0.0, 0.0, 0.0, 0.0, 0.0, 1.6961089935510652E9, 0.0, 2023-09-30 16:23:13.551
171.0, 22365.356667680346, 13058.179683468305, -187500.02235174447, -161565.00268757375, 28692.68848808867, -187500.02235174447, -3175.1994103431, -25990.720211353328, -0.112, 0.978, -0.08600000000000001, 192.0, 0.0, 0.0, 0.0, 0.0, 0.0, 0.0, 0.0, 0.0, 0.0, 1.6961089935510783E9, 0.0, 2023-09-30 16:23:13.551
172.0, 22433.797709202496, 13077.513942422145, -187500.02235174447, -162119.63887448775, 28637.18910660614, -187500.02235174447, -3276.273998769999, -26269.379409477642, -0.11, 0.976, -0.088, 192.0, 252.0, 144.0, 30.0, 128.0, 253.0, 64.0, 0.0, 0.0, 0.0, 1.6961089935510905E9, 0.0, 2023-09-30 16:23:13.551
173.0, 22469.4040381198, 13035.6267733129, -187500.02235174447, -161942.83657584628, 28772.6406780053, -187500.02235174447, -3084.3172173878215, -25985.936938039893, -0.11, 0.976, -0.088, 192.0, 0.0, 0.0, 0.0, 0.0, 0.0, 0.0, 0.0, 0.0, 0.0, 1.6961089935511026E9, 0.0, 2023-09-30 16:23:13.551
174.0, 22437.306933081978, 13007.687092743767, -187500.02235174447, -161903.54220909384, 28865.847452383932, -187500.02235174447, -2938.025049927837, -25832.246343165203, -0.11, 0.976, -0.088, 192.0, 0.0, 0.0, 0.0, 0.0, 0.0, 0.0, 0.0, 0.0, 0.0, 1.696108993551114E9, 0.0, 2023-09-30 16:23:13.551
175.0, 22361.28865018948, 13032.206956411239, -187500.02235174447, -162888.69534596152, 28669.219156410596, -187500.02235174447, -3199.875736221759, -26485.163150449178, -0.11, 0.976, -0.088, 192.0, 0.0, 0.0, 0.0, 0.0, 0.0, 0.0, 0.0, 0.0, 0.0, 1.6961089935511253E9, 0.0, 2023-09-30 16:23:13.551
176.0, 22425.348749798388, 13055.385715411392, -187500.02235174447, -163598.5196946287, 28562.020190002942, -187500.02235174447, -3365.2115899576656, -26908.527542177148, -0.11, 0.976, -0.088, 192.0, 0.0, 0.0, 0.0, 0.0, 0.0, 0.0, 0.0, 0.0, 0.0, 1.6961089935511372E9, 0.0, 2023-09-30 16:23:13.551
177.0, 22487.86657903988, 13008.491755544157, -187500.02235174447, -163445.25378289865, 28712.11215402033, -187500.02235174447, -3159.8884653912146, -26663.641829924803, -0.11, 0.976, -0.088, 192.0, 0.0, 0.0, 0.0, 0.0, 0.0, 0.0, 0.0, 0.0, 0.0, 1.6961089935511491E9, 0.0, 2023-09-30 16:23:13.551
178.0, 22451.92497395575, 12970.627900436868, -187500.02235174447, -163269.05498135748, 28833.52682990156, -187500.02235174447, -2959.5721315827527, -26430.46843176704, -0.11, 0.976, -0.088, 192.0, 0.0, 0.0, 0.0, 0.0, 0.0, 0.0, 0.0, 0.0, 0.0, 1.6961089935511608E9, 0.0, 2023-09-30 16:23:13.551
179.0, 22351.65504832924, 12989.403365779324, -187500.02235174447, -164132.70403536607, 28656.90334521572, -187500.02235174447, -3181.189677857122, -27017.849924308055, -0.11, 0.976, -0.088, 192.0, 0.0, 0.0, 0.0, 0.0, 0.0, 0.0, 0.0, 0.0, 0.0, 1.6961089935511725E9, 0.0, 2023-09-30 16:23:13.551
180.0, 22389.742420881084, 13006.18952586526, -187500.02235174447, -164968.3910570611, 28522.92698895061, -187500.02235174447, -3388.1668315132656, -27548.435634188132, -0.11, 0.976, -0.088, 192.0, 0.0, 0.0, 0.0, 0.0, 0.0, 0.0, 0.0, 0.0, 0.0, 1.6961089935511837E9, 0.0, 2023-09-30 16:23:13.551
181.0, 22458.898718225806, 12978.987452863152, -187500.02235174447, -164897.29015794877, 28656.925696960177, -187500.02235174447, -3218.003000975013, -27361.820919730773, -0.11, 0.976, -0.088, 192.0, 0.0, 0.0, 0.0, 0.0, 0.0, 0.0, 0.0, 0.0, 0.0, 1.6961089935511951E9, 0.0, 2023-09-30 16:23:13.551
182.0, 22451.857918722384, 12945.37042920237, -187500.02235174447, -164631.48321288626, 28799.75334402959, -187500.02235174447, -2991.535126153842, -27040.760462374743, -0.10400000000000001, 0.97, -0.078, 192.0, 252.0, 192.0, 30.0, 80.0, 253.0, 144.0, 0.0, 0.0, 0.0, 1.6961089935512068E9, 0.0, 2023-09-30 16:23:13.551
183.0, 22365.62488861381, 12947.650307136812, -187500.02235174447, -165297.1628662542, 28677.690467559158, -187500.02235174447, -3135.5027121904745, -27462.91785990213, -0.10400000000000001, 0.97, -0.078, 192.0, 0.0, 0.0, 0.0, 0.0, 0.0, 0.0, 0.0, 0.0, 0.0, 1.696108993551219E9, 0.0, 2023-09-30 16:23:13.551
184.0, 22387.79781911347, 12983.033118609563, -187500.02235174447, -166245.03329337042, 28507.839561443277, -187500.02235174447, -3389.329122224942, -28095.047544842666, -0.10400000000000001, 0.97, -0.078, 192.0, 0.0, 0.0, 0.0, 0.0, 0.0, 0.0, 0.0, 0.0, 0.0, 1.696108993551231E9, 0.0, 2023-09-30 16:23:13.551
185.0, 22470.722791042663, 12974.248883038626, -187500.02235174447, -166320.87276230726, 28587.434123448627, -187500.02235174447, -3294.9600571346355, -28061.139948503966, -0.10400000000000001, 0.97, -0.078, 192.0, 0.0, 0.0, 0.0, 0.0, 0.0, 0.0, 0.0, 0.0, 0.0, 1.6961089935512433E9, 0.0, 2023-09-30 16:23:13.551
186.0, 22479.88700626934, 12939.17899598825, -187500.02235174447, -166003.99208116438, 28752.613514973345, -187500.02235174447, -3047.638004736663, -27735.07270038995, -0.10400000000000001, 0.97, -0.078, 192.0, 0.0, 0.0, 0.0, 0.0, 0.0, 0.0, 0.0, 0.0, 0.0, 1.6961089935512552E9, 0.0, 2023-09-30 16:23:13.551
187.0, 22400.225389030624, 12939.111940754885, -187500.02235174447, -166434.4419758847, 28705.63014812829, -187500.02235174447, -3093.615543081229, -28010.714413012793, -0.10400000000000001, 0.97, -0.078, 192.0, 0.0, 0.0, 0.0, 0.0, 0.0, 0.0, 0.0, 0.0, 0.0, 1.696108993551267E9, 0.0, 2023-09-30 16:23:13.551
188.0, 22389.943586581183, 12999.975740906686, -187500.02235174447, -167466.66788657522, 28500.821113684313, -187500.02235174447, -3392.9501048267016, -28728.585389683893, -0.10400000000000001, 0.97, -0.078, 192.0, 0.0, 0.0, 0.0, 0.0, 0.0, 0.0, 0.0, 0.0, 0.0, 1.6961089935512784E9, 0.0, 2023-09-30 16:23:13.551
189.0, 22476.131913200847, 13000.690996729256, -187500.02235174447, -167649.59456319746, 28558.667428334647, -187500.02235174447, -3340.5799675679173, -28757.620305731336, -0.10400000000000001, 0.97, -0.078, 192.0, 0.0, 0.0, 0.0, 0.0, 0.0, 0.0, 0.0, 0.0, 0.0, 1.6961089935512905E9, 0.0, 2023-09-30 16:23:13.551
190.0, 22488.850055795916, 12990.364490790904, -187500.02235174447, -167334.97140824454, 28711.754526109045, -187500.02235174447, -3112.8603950572488, -28405.066240437776, -0.10400000000000001, 0.97, -0.078, 192.0, 0.0, 0.0, 0.0, 0.0, 0.0, 0.0, 0.0, 0.0, 0.0, 1.696108993551303E9, 0.0, 2023-09-30 16:23:13.551
191.0, 22425.23699107611, 12988.598702978934, -187500.02235174447, -167599.52665561758, 28691.414438654716, -187500.02235174447, -3118.850662571271, -28502.810418940833, -0.10400000000000001, 0.97, -0.078, 192.0, 0.0, 0.0, 0.0, 0.0, 0.0, 0.0, 0.0, 0.0, 0.0, 1.6961089935513144E9, 0.0, 2023-09-30 16:23:13.551
192.0, 22386.300252234967, 13018.460633571225, -187500.02235174447, -168670.66695340478, 28473.104950559733, -187500.02235174447, -3435.2619570805978, -29200.296604668692, -0.10400000000000001, 0.97, -0.078, 192.0, 0.0, 0.0, 0.0, 0.0, 0.0, 0.0, 0.0, 0.0, 0.0, 1.696108993551326E9, 0.0, 2023-09-30 16:23:13.551
193.0, 22471.907433498793, 13030.307058132537, -187500.02235174447, -169064.03530407374, 28457.10110152973, -187500.02235174447, -3489.867268784913, -29372.270926507823, -0.108, 0.976, -0.084, 192.0, 252.0, 160.0, 30.0, 128.0, 253.0, 96.0, 0.0, 0.0, 0.0, 1.6961089935513377E9, 0.0, 2023-09-30 16:23:13.551
194.0, 22502.68578561375, 12986.788211678055, -187500.02235174447, -168752.5190416001, 28632.33877805934, -187500.02235174447, -3247.8202280783926, -29013.279558811137, -0.108, 0.976, -0.084, 192.0, 0.0, 0.0, 0.0, 0.0, 0.0, 0.0, 0.0, 0.0, 0.0, 1.6961089935513496E9, 0.0, 2023-09-30 16:23:13.551
195.0, 22447.38756983132, 12958.490903197635, -187500.02235174447, -168789.31001297355, 28687.078200230386, -187500.02235174447, -3151.3500990092875, -28960.283572707605, -0.108, 0.976, -0.084, 192.0, 0.0, 0.0, 0.0, 0.0, 0.0, 0.0, 0.0, 0.0, 0.0, 1.6961089935513608E9, 0.0, 2023-09-30 16:23:13.551
196.0, 22371.57045263892, 13005.988360165164, -187500.02235174447, -169880.38806681492, 28433.743528573934, -187500.02235174447, -3501.5348793905832, -29732.066957004903, -0.108, 0.976, -0.084, 192.0, 0.0, 0.0, 0.0, 0.0, 0.0, 0.0, 0.0, 0.0, 0.0, 1.6961089935513735E9, 0.0, 2023-09-30 16:23:13.551
197.0, 22449.53333729903, 13013.76676723561, -187500.02235174447, -170436.05243397385, 28374.489054022917, -187500.02235174447, -3622.435465149339, -30058.0447981411, -0.108, 0.976, -0.084, 192.0, 0.0, 0.0, 0.0, 0.0, 0.0, 0.0, 0.0, 0.0, 0.0, 1.6961089935513859E9, 0.0, 2023-09-30 16:23:13.551
198.0, 22489.051221496014, 12977.445182495736, -187500.02235174447, -170189.7138583319, 28531.197134399074, -187500.02235174447, -3411.9267358692573, -29764.298172509454, -0.108, 0.976, -0.084, 192.0, 0.0, 0.0, 0.0, 0.0, 0.0, 0.0, 0.0, 0.0, 0.0, 1.696108993551397E9, 0.0, 2023-09-30 16:23:13.551
199.0, 22453.690761767717, 12951.405400205304, -187500.02235174447, -170101.37976424454, 28605.38257424624, -187500.02235174447, -3284.722958174105, -29608.886493311704, -0.108, 0.976, -0.084, 192.0, 0.0, 0.0, 0.0, 0.0, 0.0, 0.0, 0.0, 0.0, 0.0, 1.6961089935514088E9, 0.0, 2023-09-30 16:23:13.551
200.0, 22365.982516525095, 12966.604586434913, -187500.02235174447, -171093.59605236008, 28383.161530871577, -187500.02235174447, -3589.310179866574, -30278.03066707023, -0.108, 0.976, -0.084, 192.0, 0.0, 0.0, 0.0, 0.0, 0.0, 0.0, 0.0, 0.0, 0.0, 1.6961089935514205E9, 0.0, 2023-09-30 16:23:13.551
201.0, 22420.85604916287, 12985.201237821728, -187500.02235174447, -171838.62439854437, 28269.25704112733, -187500.02235174447, -3786.7207868958462, -30715.431954316136, -0.108, 0.976, -0.084, 192.0, 0.0, 0.0, 0.0, 0.0, 0.0, 0.0, 0.0, 0.0, 0.0, 1.6961089935514324E9, 0.0, 2023-09-30 16:23:13.551
202.0, 22476.266023667577, 12951.405400205304, -187500.02235174447, -171679.41292278923, 28416.48798185444, -187500.02235174447, -3602.3859503729286, -30449.401491809072, -0.108, 0.976, -0.084, 192.0, 0.0, 0.0, 0.0, 0.0, 0.0, 0.0, 0.0, 0.0, 0.0, 1.696108993551444E9, 0.0, 2023-09-30 16:23:13.551
203.0, 22449.041598921016, 12936.496786653614, -187500.02235174447, -171465.90905975213, 28534.706358278556, -187500.02235174447, -3417.514671983084, -30172.128101840986, -0.114, 0.978, -0.084, 192.0, 252.0, 112.0, 30.0, 144.0, 253.0, 96.0, 0.0, 0.0, 0.0, 1.6961089935514555E9, 0.0, 2023-09-30 16:23:13.551
204.0, 22358.98642051058, 12950.846606593921, -187500.02235174447, -172287.17920627346, 28371.940955155012, -187500.02235174447, -3634.460703666294, -30698.623442485747, -0.114, 0.978, -0.084, 192.0, 0.0, 0.0, 0.0, 0.0, 0.0, 0.0, 0.0, 0.0, 0.0, 1.6961089935514677E9, 0.0, 2023-09-30 16:23:13.551
205.0, 22388.468371447132, 12969.532664958557, -187500.02235174447, -173178.65618212894, 28215.81402013469, -187500.02235174447, -3881.5145351308033, -31241.94964670535, -0.114, 0.978, -0.084, 192.0, 0.0, 0.0, 0.0, 0.0, 0.0, 0.0, 0.0, 0.0, 0.0, 1.6961089935514793E9, 0.0, 2023-09-30 16:23:13.551
206.0, 22454.83070073494, 12953.595871161924, -187500.02235174447, -173163.99343776627, 28306.293881689773, -187500.02235174447, -3770.4263651879273, -31078.156063336857, -0.114, 0.978, -0.084, 192.0, 0.0, 0.0, 0.0, 0.0, 0.0, 0.0, 0.0, 0.0, 0.0, 1.6961089935514913E9, 0.0, 2023-09-30 16:23:13.551
207.0, 22457.73642751413, 12938.419036676769, -187500.02235174447, -172885.53540534203, 28433.005921006912, -187500.02235174447, -3571.9428744248003, -30713.3979455707, -0.114, 0.978, -0.084, 192.0, 0.0, 0.0, 0.0, 0.0, 0.0, 0.0, 0.0, 0.0, 0.0, 1.6961089935515032E9, 0.0, 2023-09-30 16:23:13.551
208.0, 22380.131170765304, 12927.734902827133, -187500.02235174447, -173448.66525514904, 28358.239335803908, -187500.02235174447, -3669.4411837388498, -30976.030942920563, -0.114, 0.978, -0.084, 192.0, 0.0, 0.0, 0.0, 0.0, 0.0, 0.0, 0.0, 0.0, 0.0, 1.6961089935515149E9, 0.0, 2023-09-30 16:23:13.551
209.0, 22378.85712133135, 12949.66196413779, -187500.02235174447, -174406.6610225035, 28184.365115686076, -187500.02235174447, -3938.869111403121, -31513.299824392776, -0.114, 0.978, -0.084, 192.0, 0.0, 0.0, 0.0, 0.0, 0.0, 0.0, 0.0, 0.0, 0.0, 1.6961089935515268E9, 0.0, 2023-09-30 16:23:13.551
210.0, 22460.53039557104, 12952.94767057272, -187500.02235174447, -174489.96597408844, 28247.73231121687, -187500.02235174447, -3872.90911351551, -31390.611099077596, -0.114, 0.978, -0.084, 192.0, 0.0, 0.0, 0.0, 0.0, 0.0, 0.0, 0.0, 0.0, 0.0, 1.696108993551539E9, 0.0, 2023-09-30 16:23:13.551
211.0, 22478.21062543519, 12922.728112069144, -187500.02235174447, -174103.37020198946, 28415.728022542957, -187500.02235174447, -3621.0049535041994, -30944.179707071748, -0.114, 0.978, -0.084, 192.0, 0.0, 0.0, 0.0, 0.0, 0.0, 0.0, 0.0, 0.0, 0.0, 1.696108993551551E9, 0.0, 2023-09-30 16:23:13.551
212.0, 22407.221485045135, 12909.115899695862, -187500.02235174447, -174435.62888331758, 28387.43071406254, -187500.02235174447, -3642.4626281812943, -31086.850891929975, -0.114, 0.978, -0.084, 192.0, 0.0, 0.0, 0.0, 0.0, 0.0, 0.0, 0.0, 0.0, 0.0, 1.6961089935515633E9, 0.0, 2023-09-30 16:23:13.551
213.0, 22379.304156220456, 12934.708647097188, -187500.02235174447, -175409.2932235352, 28213.668252666983, -187500.02235174447, -3906.72730287639, -31707.312966264843, -0.108, 0.972, -0.088, 192.0, 252.0, 160.0, 30.0, 96.0, 253.0, 64.0, 0.0, 0.0, 0.0, 1.696108993551576E9, 0.0, 2023-09-30 16:23:13.551
214.0, 22463.05614269449, 12949.952536815708, -187500.02235174447, -175607.41908638706, 28245.340674560153, -187500.02235174447, -3888.175354978485, -31742.51696378195, -0.108, 0.972, -0.088, 192.0, 0.0, 0.0, 0.0, 0.0, 0.0, 0.0, 0.0, 0.0, 0.0, 1.6961089935515883E9, 0.0, 2023-09-30 16:23:13.551
215.0, 22499.042451267534, 12926.37144641536, -187500.02235174447, -175213.58134908456, 28410.207141662497, -187500.02235174447, -3641.590910147537, -31340.76670894226, -0.108, 0.972, -0.088, 192.0, 0.0, 0.0, 0.0, 0.0, 0.0, 0.0, 0.0, 0.0, 0.0, 1.6961089935516E9, 0.0, 2023-09-30 16:23:13.551
216.0, 22442.403130817787, 12928.204289460695, -187500.02235174447, -175343.10970820306, 28418.812563277792, -187500.02235174447, -3599.4355201048284, -31363.11845339757, -0.108, 0.972, -0.088, 192.0, 0.0, 0.0, 0.0, 0.0, 0.0, 0.0, 0.0, 0.0, 0.0, 1.696108993551612E9, 0.0, 2023-09-30 16:23:13.551
217.0, 22395.732688395106, 12954.42288570677, -187500.02235174447, -176310.49320822876, 28242.34554080314, -187500.02235174447, -3858.0452034527307, -32002.17717911925, -0.108, 0.972, -0.088, 192.0, 0.0, 0.0, 0.0, 0.0, 0.0, 0.0, 0.0, 0.0, 0.0, 1.6961089935516243E9, 0.0, 2023-09-30 16:23:13.551
218.0, 22465.31366888448, 12972.483095226658, -187500.02235174447, -176653.48072689542, 28228.44275575194, -187500.02235174447, -3900.133538262074, -32150.771576258136, -0.108, 0.972, -0.088, 192.0, 0.0, 0.0, 0.0, 0.0, 0.0, 0.0, 0.0, 0.0, 0.0, 1.696108993551636E9, 0.0, 2023-09-30 16:23:13.551
219.0, 22497.947215789227, 12935.26744070857, -187500.02235174447, -176265.9014780404, 28392.593967031717, -187500.02235174447, -3652.3868027194508, -31738.985388158013, -0.108, 0.972, -0.088, 192.0, 0.0, 0.0, 0.0, 0.0, 0.0, 0.0, 0.0, 0.0, 0.0, 1.6961089935516474E9, 0.0, 2023-09-30 16:23:13.551
220.0, 22450.382703588333, 12901.158678669774, -187500.02235174447, -176162.85993610145, 28462.10789228772, -187500.02235174447, -3517.181100509298, -31558.226830747943, -0.108, 0.972, -0.088, 192.0, 0.0, 0.0, 0.0, 0.0, 0.0, 0.0, 0.0, 0.0, 0.0, 1.6961089935516589E9, 0.0, 2023-09-30 16:23:13.551
221.0, 22380.779371354507, 12919.442405634214, -187500.02235174447, -177061.37771146034, 28293.061648972234, -187500.02235174447, -3754.7354405803017, -32131.236151604196, -0.108, 0.972, -0.088, 192.0, 0.0, 0.0, 0.0, 0.0, 0.0, 0.0, 0.0, 0.0, 0.0, 1.6961089935516715E9, 0.0, 2023-09-30 16:23:13.551
222.0, 22456.708247269184, 12944.163435001783, -187500.02235174447, -177534.38532762355, 28249.095767628645, -187500.02235174447, -3844.075363168164, -32364.7895294177, -0.108, 0.972, -0.088, 192.0, 0.0, 0.0, 0.0, 0.0, 0.0, 0.0, 0.0, 0.0, 0.0, 1.6961089935516837E9, 0.0, 2023-09-30 16:23:13.551
223.0, 22502.372861191376, 12936.474434909158, -187500.02235174447, -177191.8224921015, 28404.663909037583, -187500.02235174447, -3616.3781424019508, -31986.486254511627, -0.112, 0.976, -0.08, 192.0, 252.0, 128.0, 30.0, 128.0, 253.0, 128.0, 0.0, 0.0, 0.0, 1.696108993551696E9, 0.0, 2023-09-30 16:23:13.551
224.0, 22473.717924799672, 12919.710626567678, -187500.02235174447, -176927.1554860062, 28508.286596332386, -187500.02235174447, -3430.612794233894, -31692.04672480187, -0.112, 0.976, -0.08, 192.0, 0.0, 0.0, 0.0, 0.0, 0.0, 0.0, 0.0, 0.0, 0.0, 1.6961089935517085E9, 0.0, 2023-09-30 16:23:13.551
225.0, 22395.710336650653, 12906.724263039145, -187500.02235174447, -177675.8271665367, 28377.86416743567, -187500.02235174447, -3606.118691696965, -32162.46153860826, -0.112, 0.976, -0.08, 192.0, 0.0, 0.0, 0.0, 0.0, 0.0, 0.0, 0.0, 0.0, 0.0, 1.69610899355172E9, 0.0, 2023-09-30 16:23:13.551
226.0, 22436.815194703962, 12931.646458106812, -187500.02235174447, -178277.02203715112, 28297.64375658557, -187500.02235174447, -3742.8666642745334, -32495.23431005887, -0.112, 0.976, -0.08, 192.0, 0.0, 0.0, 0.0, 0.0, 0.0, 0.0, 0.0, 0.0, 0.0, 1.6961089935517323E9, 0.0, 2023-09-30 16:23:13.551
227.0, 22493.990957020636, 12911.574591585946, -187500.02235174447, -177988.08103657735, 28445.567601390794, -187500.02235174447, -3533.4531704727615, -32144.155459899364, -0.112, 0.976, -0.08, 192.0, 0.0, 0.0, 0.0, 0.0, 0.0, 0.0, 0.0, 0.0, 0.0, 1.6961089935517461E9, 0.0, 2023-09-30 16:23:13.551
228.0, 22477.048334723513, 12891.92740820973, -187500.02235174447, -177588.38714222756, 28579.342791955805, -187500.02235174447, -3306.7841299514926, -31730.51407700945, -0.112, 0.976, -0.08, 192.0, 0.0, 0.0, 0.0, 0.0, 0.0, 0.0, 0.0, 0.0, 0.0, 1.696108993551761E9, 0.0, 2023-09-30 16:23:13.551
229.0, 22386.479066190608, 12884.59603602839, -187500.02235174447, -178182.94354473872, 28468.05345631283, -187500.02235174447, -3445.029669407567, -32077.860185844922, -0.112, 0.976, -0.08, 192.0, 0.0, 0.0, 0.0, 0.0, 0.0, 0.0, 0.0, 0.0, 0.0, 1.6961089935517745E9, 0.0, 2023-09-30 16:23:13.551
230.0, 22412.3400345254, 12922.951629513696, -187500.02235174447, -178908.74939069146, 28347.734015909915, -187500.02235174447, -3635.108904255498, -32494.250833302838, -0.112, 0.976, -0.08, 192.0, 0.0, 0.0, 0.0, 0.0, 0.0, 0.0, 0.0, 0.0, 0.0, 1.6961089935517871E9, 0.0, 2023-09-30 16:23:13.551
231.0, 22496.203779721713, 12922.057559735485, -187500.02235174447, -178711.0705627287, 28476.48006397248, -187500.02235174447, -3463.872189983391, -32202.56056816108, -0.112, 0.976, -0.08, 192.0, 0.0, 0.0, 0.0, 0.0, 0.0, 0.0, 0.0, 0.0, 0.0, 1.6961089935518E9, 0.0, 2023-09-30 16:23:13.551
232.0, 22501.791715835538, 12884.640739517301, -187500.02235174447, -178184.17289068378, 28654.221135881086, -187500.02235174447, -3180.2509045899997, -31676.84753857226, -0.112, 0.976, -0.08, 192.0, 0.0, 0.0, 0.0, 0.0, 0.0, 0.0, 0.0, 0.0, 0.0, 1.6961089935518117E9, 0.0, 2023-09-30 16:23:13.551
233.0, 22426.980427143626, 12877.152905124773, -187500.02235174447, -178550.74149975082, 28591.010402561475, -187500.02235174447, -3242.8357890648595, -31844.127994075778, -0.112, 0.976, -0.08, 192.0, 0.0, 0.0, 0.0, 0.0, 0.0, 0.0, 0.0, 0.0, 0.0, 1.6961089935518236E9, 0.0, 2023-09-30 16:23:13.551
234.0, 22432.881287679826, 12914.368559642859, -187500.02235174447, -179325.74353524967, 28460.67738064258, -187500.02235174447, -3448.181265375765, -32276.81306324161, -0.116, 0.972, -0.076, 192.0, 252.0, 96.0, 30.0, 96.0, 253.0, 160.0, 0.0, 0.0, 0.0, 1.696108993551836E9, 0.0, 2023-09-30 16:23:13.551
235.0, 22508.094907771934, 12935.8038825755, -187500.02235174447, -179276.43558698127, 28520.22242787152, -187500.02235174447, -3372.8111830724697, -32082.665810902814, -0.116, 0.972, -0.076, 192.0, 0.0, 0.0, 0.0, 0.0, 0.0, 0.0, 0.0, 0.0, 0.0, 1.6961089935518477E9, 0.0, 2023-09-30 16:23:13.551
236.0, 22533.88882087336, 12912.446309619703, -187500.02235174447, -178719.8771500441, 28696.465932901614, -187500.02235174447, -3095.9624762490366, -31503.040373687792, -0.116, 0.972, -0.076, 192.0, 0.0, 0.0, 0.0, 0.0, 0.0, 0.0, 0.0, 0.0, 0.0, 1.6961089935518596E9, 0.0, 2023-09-30 16:23:13.551
237.0, 22467.92882298575, 12900.085794935918, -187500.02235174447, -178852.0206632639, 28685.58063335188, -187500.02235174447, -3083.13257493169, -31466.025884869803, -0.116, 0.972, -0.076, 192.0, 0.0, 0.0, 0.0, 0.0, 0.0, 0.0, 0.0, 0.0, 0.0, 1.696108993551871E9, 0.0, 2023-09-30 16:23:13.551
238.0, 22437.306933081978, 12920.850565534898, -187500.02235174447, -179701.5210630323, 28513.539256279382, -187500.02235174447, -3337.070743688434, -31950.522297683037, -0.116, 0.972, -0.076, 192.0, 0.0, 0.0, 0.0, 0.0, 0.0, 0.0, 0.0, 0.0, 0.0, 1.6961089935518837E9, 0.0, 2023-09-30 16:23:13.551
239.0, 22518.98020732167, 12926.550260371001, -187500.02235174447, -179758.36154918213, 28568.926879039635, -187500.02235174447, -3283.3147982734204, -31819.988110064045, -0.116, 0.972, -0.076, 192.0, 0.0, 0.0, 0.0, 0.0, 0.0, 0.0, 0.0, 0.0, 0.0, 1.6961089935518954E9, 0.0, 2023-09-30 16:23:13.551
240.0, 22542.494242488654, 12916.670789321755, -187500.02235174447, -179207.32399312546, 28744.11985208033, -187500.02235174447, -3010.9364403410486, -31252.164393921423, -0.116, 0.972, -0.076, 192.0, 0.0, 0.0, 0.0, 0.0, 0.0, 0.0, 0.0, 0.0, 0.0, 1.6961089935519073E9, 0.0, 2023-09-30 16:23:13.551
241.0, 22483.530340615554, 12910.769928785556, -187500.02235174447, -179163.31340829295, 28759.095520865387, -187500.02235174447, -2947.9045209770825, -31108.845008473996, -0.116, 0.972, -0.076, 192.0, 0.0, 0.0, 0.0, 0.0, 0.0, 0.0, 0.0, 0.0, 0.0, 1.6961089940303652E9, 0.0, 2023-09-30 16:23:14.030
242.0, 22428.43329053322, 12929.65715285029, -187500.02235174447, -180007.1364649697, 28585.400114703196, -187500.02235174447, -3197.551154798407, -31623.337462346255, -0.116, 0.972, -0.076, 192.0, 0.0, 0.0, 0.0, 0.0, 0.0, 0.0, 0.0, 0.0, 0.0, 1.6961089940305443E9, 0.0, 2023-09-30 16:23:14.030
243.0, 22497.723698344675, 12959.764952631587, -187500.02235174447, -180283.046398526, 28559.963829513053, -187500.02235174447, -3253.430515936675, -31707.80470464286, -0.116, 0.972, -0.076, 192.0, 0.0, 0.0, 0.0, 0.0, 0.0, 0.0, 0.0, 0.0, 0.0, 1.6961089940305777E9, 0.0, 2023-09-30 16:23:14.030
244.0, 22542.471890744197, 12927.55608887149, -187500.02235174447, -179781.09327329317, 28736.8331833879, -187500.02235174447, -2990.976332542459, -31209.092582356046, -0.114, 0.974, -0.078, 192.0, 252.0, 112.0, 30.0, 112.0, 253.0, 144.0, 0.0, 0.0, 0.0, 1.6961089940306025E9, 0.0, 2023-09-30 16:23:14.030
245.0, 22500.003576279116, 12910.814632274465, -187500.02235174447, -179538.55449420866, 28810.973919746153, -187500.02235174447, -2844.3041854267344, -30945.31964603897, -0.114, 0.974, -0.078, 192.0, 0.0, 0.0, 0.0, 0.0, 0.0, 0.0, 0.0, 0.0, 0.0, 1.6961089940306373E9, 0.0, 2023-09-30 16:23:14.030
246.0, 22419.42553751773, 12929.679504594746, -187500.02235174447, -180367.08895767797, 28616.692556940623, -187500.02235174447, -3106.110168231746, -31497.541844551786, -0.114, 0.974, -0.078, 192.0, 0.0, 0.0, 0.0, 0.0, 0.0, 0.0, 0.0, 0.0, 0.0, 1.6961089940306716E9, 0.0, 2023-09-30 16:23:14.030
247.0, 22488.045392995526, 12948.678487381756, -187500.02235174447, -180787.59232611567, 28571.02794301843, -187500.02235174447, -3198.9593146990915, -31712.81149540085, -0.114, 0.974, -0.078, 192.0, 0.0, 0.0, 0.0, 0.0, 0.0, 0.0, 0.0, 0.0, 0.0, 1.696108994030711E9, 0.0, 2023-09-30 16:23:14.030
248.0, 22540.102605831937, 12926.438501648725, -187500.02235174447, -180383.11515845242, 28723.198619270162, -187500.02235174447, -2978.012320758381, -31310.301281249678, -0.114, 0.974, -0.078, 192.0, 0.0, 0.0, 0.0, 0.0, 0.0, 0.0, 0.0, 0.0, 0.0, 1.6961089940307465E9, 0.0, 2023-09-30 16:23:14.030
249.0, 22520.45542245572, 12924.069216736463, -187500.02235174447, -180056.91379987166, 28802.07792545294, -187500.02235174447, -2823.4276561054776, -30997.019230964095, -0.114, 0.974, -0.078, 192.0, 0.0, 0.0, 0.0, 0.0, 0.0, 0.0, 0.0, 0.0, 0.0, 1.6961089940307915E9, 0.0, 2023-09-30 16:23:14.030
250.0, 22449.175709387746, 12911.753405541589, -187500.02235174447, -180740.22897961485, 28653.394121336238, -187500.02235174447, -3021.1064840682134, -31438.60029442314, -0.114, 0.974, -0.078, 192.0, 0.0, 0.0, 0.0, 0.0, 0.0, 0.0, 0.0, 0.0, 0.0, 1.6961089940308194E9, 0.0, 2023-09-30 16:23:14.030
251.0, 22488.06774473998, 12935.714475597677, -187500.02235174447, -181304.18584396673, 28567.18344297212, -187500.02235174447, -3169.231494573533, -31751.949399942092, -0.114, 0.974, -0.078, 192.0, 0.0, 0.0, 0.0, 0.0, 0.0, 0.0, 0.0, 0.0, 0.0, 1.6961089940309017E9, 0.0, 2023-09-30 16:23:14.030
252.0, 22546.674018701797, 12928.293696438515, -187500.02235174447, -181005.9241659551, 28693.001412511043, -187500.02235174447, -2995.267867477878, -31411.174703976478, -0.114, 0.974, -0.078, 192.0, 0.0, 0.0, 0.0, 0.0, 0.0, 0.0, 0.0, 0.0, 0.0, 1.6961089940309346E9, 0.0, 2023-09-30 16:23:14.030
253.0, 22539.633219198375, 12897.537696068013, -187500.02235174447, -180529.78730556814, 28831.202248478206, -187500.02235174447, -2765.8942658775172, -30954.12623335436, -0.114, 0.974, -0.078, 192.0, 0.0, 0.0, 0.0, 0.0, 0.0, 0.0, 0.0, 0.0, 0.0, 1.6961089940309901E9, 0.0, 2023-09-30 16:23:14.030
254.0, 22453.73546525663, 12894.900190222286, -187500.02235174447, -181059.97068404802, 28703.81965682741, -187500.02235174447, -2921.3953520530886, -31266.827138284105, -0.108, 0.98, -0.08, 192.0, 252.0, 160.0, 30.0, 160.0, 253.0, 128.0, 0.0, 0.0, 0.0, 1.6961089940310335E9, 0.0, 2023-09-30 16:23:14.031
255.0, 22474.701401555707, 12922.79516730251, -187500.02235174447, -181765.79407045772, 28576.19119598761, -187500.02235174447, -3128.8642440872486, -31664.777596566393, -0.108, 0.98, -0.08, 192.0, 0.0, 0.0, 0.0, 0.0, 0.0, 0.0, 0.0, 0.0, 0.0, 1.6961089940310607E9, 0.0, 2023-09-30 16:23:14.031
0.0, 22554.608887983428, 12907.774795028543, -187500.02235174447, -181542.92482649387, 28695.750677079046, -187500.02235174447, -2976.8723817911605, -31343.895953166004, -0.108, 0.98, -0.08, 192.0, 0.0, 0.0, 0.0, 0.0, 0.0, 0.0, 0.0, 0.0, 0.0, 1.6961089940310876E9, 0.0, 2023-09-30 16:23:14.031
1.0, 22558.453388029742, 12892.463850076658, -187500.02235174447, -180977.38098828567, 28856.839699368444, -187500.02235174447, -2718.2403466988026, -30777.480396924067, -0.108, 0.98, -0.08, 192.0, 0.0, 0.0, 0.0, 0.0, 0.0, 0.0, 0.0, 0.0, 0.0, 1.696108994031113E9, 0.0, 2023-09-30 16:23:14.031
2.0, 22469.247575908612, 12900.465774591657, -187500.02235174447, -181306.80099806798, 28757.709712709155, -187500.02235174447, -2825.193443917447, -30907.858122331876, -0.108, 0.98, -0.08, 192.0, 0.0, 0.0, 0.0, 0.0, 0.0, 0.0, 0.0, 0.0, 0.0, 1.6961089940311456E9, 0.0, 2023-09-30 16:23:14.031
3.0, 22461.983258960638, 12922.7504638136, -187500.02235174447, -182112.71549614854, 28581.68972512361, -187500.02235174447, -3091.715644802528, -31350.534421269233, -0.108, 0.98, -0.08, 192.0, 0.0, 0.0, 0.0, 0.0, 0.0, 0.0, 0.0, 0.0, 0.0, 1.6961089940311768E9, 0.0, 2023-09-30 16:23:14.031
4.0, 22543.23185005568, 12938.106112254396, -187500.02235174447, -182073.19761195156, 28625.05210936691, -187500.02235174447, -3043.212359334512, -31143.244343190712, -0.108, 0.98, -0.08, 192.0, 0.0, 0.0, 0.0, 0.0, 0.0, 0.0, 0.0, 0.0, 0.0, 1.696108994031222E9, 0.0, 2023-09-30 16:23:14.031
5.0, 22561.09089387547, 12909.875859007343, -187500.02235174447, -181498.8918899169, 28783.145997899297, -187500.02235174447, -2791.5317167677545, -30547.123318567672, -0.108, 0.98, -0.08, 192.0, 0.0, 0.0, 0.0, 0.0, 0.0, 0.0, 0.0, 0.0, 0.0, 1.6961089940312672E9, 0.0, 2023-09-30 16:23:14.031
6.0, 22493.320404686976, 12890.340434353404, -187500.02235174447, -181539.92969273683, 28782.766018243554, -187500.02235174447, -2765.3354722661343, -30442.87478242812, -0.108, 0.98, -0.08, 192.0, 0.0, 0.0, 0.0, 0.0, 0.0, 0.0, 0.0, 0.0, 0.0, 1.6961089940313025E9, 0.0, 2023-09-30 16:23:14.031
7.0, 22455.143625157314, 12923.599830102901, -187500.02235174447, -182376.30961851, 28591.278623494938, -187500.02235174447, -3048.88970242616, -30938.971750613662, -0.108, 0.98, -0.08, 192.0, 0.0, 0.0, 0.0, 0.0, 0.0, 0.0, 0.0, 0.0, 0.0, 1.696108994031346E9, 0.0, 2023-09-30 16:23:14.031
8.0, 22533.575896450984, 12923.51042312508, -187500.02235174447, -182474.1208522464, 28608.601225447805, -187500.02235174447, -3050.208455349023, -30870.39659862478, -0.112, 0.976, -0.084, 192.0, 252.0, 128.0, 30.0, 128.0, 253.0, 96.0, 0.0, 0.0, 0.0, 1.6961089940313833E9, 0.0, 2023-09-30 16:23:14.031
9.0, 22563.75075146565, 12901.113975180862, -187500.02235174447, -181880.7714439358, 28795.953547472185, -187500.02235174447, -2770.5881322131318, -30285.183225295932, -0.112, 0.976, -0.084, 192.0, 0.0, 0.0, 0.0, 0.0, 0.0, 0.0, 0.0, 0.0, 0.0, 1.6961089940314193E9, 0.0, 2023-09-30 16:23:14.031
10.0, 22511.380614206864, 12906.657207805778, -187500.02235174447, -181768.54333502572, 28810.549236601502, -187500.02235174447, -2711.803044295674, -30103.86587427448, -0.112, 0.976, -0.084, 192.0, 0.0, 0.0, 0.0, 0.0, 0.0, 0.0, 0.0, 0.0, 0.0, 1.6961089940314465E9, 0.0, 2023-09-30 16:23:14.031
11.0, 22455.501253068596, 12913.742710798111, -187500.02235174447, -182562.4772980782, 28641.32417933037, -187500.02235174447, -2963.2601694178784, -30578.86279569421, -0.112, 0.976, -0.084, 192.0, 0.0, 0.0, 0.0, 0.0, 0.0, 0.0, 0.0, 0.0, 0.0, 1.6961089940314832E9, 0.0, 2023-09-30 16:23:14.031
12.0, 22520.99186432265, 12921.387007401825, -187500.02235174447, -182786.33001879812, 28637.077347883864, -187500.02235174447, -2998.374759957166, -30600.476932582493, -0.112, 0.976, -0.084, 192.0, 0.0, 0.0, 0.0, 0.0, 0.0, 0.0, 0.0, 0.0, 0.0, 1.6961089940315151E9, 0.0, 2023-09-30 16:23:14.031
13.0, 22558.073408374003, 12914.681484065233, -187500.02235174447, -182309.41084735523, 28771.120759382342, -187500.02235174447, -2789.5647632556875, -30112.493647634226, -0.112, 0.976, -0.084, 192.0, 0.0, 0.0, 0.0, 0.0, 0.0, 0.0, 0.0, 0.0, 0.0, 1.696108994031548E9, 0.0, 2023-09-30 16:23:14.031
14.0, 22529.84315512695, 12888.50759130807, -187500.02235174447, -182011.68561121056, 28846.557896919003, -187500.02235174447, -2649.709898198831, -29779.095027338866, -0.112, 0.976, -0.084, 192.0, 0.0, 0.0, 0.0, 0.0, 0.0, 0.0, 0.0, 0.0, 0.0, 1.6961089940315773E9, 0.0, 2023-09-30 16:23:14.031
15.0, 22452.573174544952, 12890.921579709242, -187500.02235174447, -182742.20767524335, 28678.204557681627, -187500.02235174447, -2884.4032149795553, -30215.199913406363, -0.112, 0.976, -0.084, 192.0, 0.0, 0.0, 0.0, 0.0, 0.0, 0.0, 0.0, 0.0, 0.0, 1.6961089940316055E9, 0.0, 2023-09-30 16:23:14.031
16.0, 22502.59637863593, 12910.054672962986, -187500.02235174447, -183154.17267729912, 28617.206647063096, -187500.02235174447, -3001.146376269624, -30384.40261893304, -0.112, 0.976, -0.084, 192.0, 0.0, 0.0, 0.0, 0.0, 0.0, 0.0, 0.0, 0.0, 0.0, 1.696108994031643E9, 0.0, 2023-09-30 16:23:14.031
17.0, 22558.475739774196, 12893.626140788334, -187500.02235174447, -182725.30975643513, 28759.184927843206, -187500.02235174447, -2796.002065658816, -29918.905188906814, -0.112, 0.976, -0.084, 192.0, 0.0, 0.0, 0.0, 0.0, 0.0, 0.0, 0.0, 0.0, 0.0, 1.696108994031733E9, 0.0, 2023-09-30 16:23:14.031
18.0, 22544.50589948963, 12884.50662905057, -187500.02235174447, -182289.74131223458, 28865.668638428288, -187500.02235174447, -2608.3144674676023, -29466.148253220115, -0.112, 0.976, -0.084, 192.0, 0.0, 0.0, 0.0, 0.0, 0.0, 0.0, 0.0, 0.0, 0.0, 1.6961089940317905E9, 0.0, 2023-09-30 16:23:14.031
